Channel              :		CH1
Frequency            :		  ?
Period               :		  ?
PK-PK                :		5.072V
Average              :		-32.51mV
Vertical pos         :		0.000000mV
Probe attenuation    :		1X
Voltage per ADC value:		2.500000mV
Time interval        :		100.00000uS

index		CH1_Voltage(mV)
1		672.500000
2		672.500000
3		-190.000000
4		-425.000000
5		937.500000
6		-1977.500000
7		20.000000
8		1250.000000
9		2220.000000
10		-820.000000
11		340.000000
12		-1580.000000
13		337.500000
14		322.500000
15		-460.000000
16		-685.000000
17		535.000000
18		607.500000
19		-947.500000
20		707.500000
21		-292.500000
22		555.000000
23		-712.500000
24		530.000000
25		382.500000
26		465.000000
27		485.000000
28		762.500000
29		1260.000000
30		1047.500000
31		82.500000
32		-530.000000
33		1285.000000
34		-792.500000
35		-15.000000
36		-157.500000
37		-1090.000000
38		265.000000
39		-357.500000
40		1500.000000
41		412.500000
42		17.500000
43		520.000000
44		7.500000
45		-842.500000
46		-940.000000
47		-5.000000
48		1330.000000
49		797.500000
50		-497.500000
51		1167.500000
52		-1227.500000
53		-252.500000
54		1265.000000
55		-620.000000
56		-635.000000
57		1005.000000
58		260.000000
59		-485.000000
60		-307.500000
61		102.500000
62		-1030.000000
63		375.000000
64		-95.000000
65		-352.500000
66		1420.000000
67		382.500000
68		145.000000
69		-452.500000
70		470.000000
71		-1015.000000
72		-70.000000
73		-1192.500000
74		-122.500000
75		-655.000000
76		-817.500000
77		-700.000000
78		545.000000
79		-1042.500000
80		580.000000
81		90.000000
82		-52.500000
83		-387.500000
84		312.500000
85		1080.000000
86		-780.000000
87		-475.000000
88		-120.000000
89		-660.000000
90		132.500000
91		-292.500000
92		420.000000
93		1220.000000
94		375.000000
95		-827.500000
96		-1312.500000
97		202.500000
98		-45.000000
99		-560.000000
100		-377.500000
101		155.000000
102		-927.500000
103		72.500000
104		-1232.500000
105		1915.000000
106		620.000000
107		160.000000
108		-1510.000000
109		187.500000
110		437.500000
111		482.500000
112		-980.000000
113		1022.500000
114		-1067.500000
115		590.000000
116		-125.000000
117		-67.500000
118		-1382.500000
119		-762.500000
120		1165.000000
121		747.500000
122		307.500000
123		-337.500000
124		127.500000
125		877.500000
126		-510.000000
127		-782.500000
128		-132.500000
129		1380.000000
130		322.500000
131		-545.000000
132		275.000000
133		-152.500000
134		600.000000
135		-1500.000000
136		-525.000000
137		70.000000
138		1085.000000
139		-987.500000
140		-37.500000
141		-212.500000
142		47.500000
143		-382.500000
144		-295.000000
145		-365.000000
146		-372.500000
147		1172.500000
148		-607.500000
149		-837.500000
150		-387.500000
151		1135.000000
152		-992.500000
153		-475.000000
154		-1082.500000
155		-180.000000
156		-500.000000
157		-320.000000
158		605.000000
159		955.000000
160		-97.500000
161		852.500000
162		492.500000
163		-1390.000000
164		322.500000
165		855.000000
166		-642.500000
167		307.500000
168		50.000000
169		-232.500000
170		797.500000
171		-745.000000
172		140.000000
173		-82.500000
174		987.500000
175		567.500000
176		450.000000
177		255.000000
178		-1475.000000
179		-1800.000000
180		950.000000
181		-177.500000
182		-602.500000
183		-1360.000000
184		670.000000
185		-460.000000
186		870.000000
187		550.000000
188		1187.500000
189		-375.000000
190		575.000000
191		515.000000
192		240.000000
193		597.500000
194		277.500000
195		600.000000
196		367.500000
197		1212.500000
198		-300.000000
199		-982.500000
200		-1487.500000
201		332.500000
202		-100.000000
203		-912.500000
204		492.500000
205		-360.000000
206		920.000000
207		-422.500000
208		210.000000
209		1157.500000
210		165.000000
211		760.000000
212		-550.000000
213		125.000000
214		-470.000000
215		-812.500000
216		135.000000
217		292.500000
218		945.000000
219		-440.000000
220		-607.500000
221		-587.500000
222		172.500000
223		370.000000
224		687.500000
225		-730.000000
226		485.000000
227		-715.000000
228		77.500000
229		-577.500000
230		1065.000000
231		-65.000000
232		-72.500000
233		975.000000
234		392.500000
235		-1845.000000
236		202.500000
237		-122.500000
238		820.000000
239		-260.000000
240		-1695.000000
241		-687.500000
242		-325.000000
243		667.500000
244		372.500000
245		55.000000
246		-397.500000
247		-802.500000
248		-890.000000
249		-1085.000000
250		-1315.000000
251		-360.000000
252		-205.000000
253		-1225.000000
254		322.500000
255		422.500000
256		-207.500000
257		1137.500000
258		-130.000000
259		-1832.500000
260		-47.500000
261		785.000000
262		-100.000000
263		712.500000
264		1132.500000
265		-247.500000
266		-1000.000000
267		92.500000
268		302.500000
269		-1320.000000
270		-325.000000
271		732.500000
272		-1030.000000
273		752.500000
274		722.500000
275		-165.000000
276		-747.500000
277		-1715.000000
278		365.000000
279		1127.500000
280		-975.000000
281		-867.500000
282		-55.000000
283		-572.500000
284		1065.000000
285		-792.500000
286		-107.500000
287		-935.000000
288		-160.000000
289		1380.000000
290		-1267.500000
291		840.000000
292		-1410.000000
293		-250.000000
294		970.000000
295		-932.500000
296		1227.500000
297		92.500000
298		542.500000
299		-220.000000
300		-1335.000000
301		982.500000
302		1442.500000
303		512.500000
304		-25.000000
305		1127.500000
306		-192.500000
307		1292.500000
308		595.000000
309		270.000000
310		895.000000
311		-1205.000000
312		-1000.000000
313		-350.000000
314		657.500000
315		-445.000000
316		940.000000
317		192.500000
318		322.500000
319		1135.000000
320		-865.000000
321		92.500000
322		-495.000000
323		-255.000000
324		232.500000
325		-460.000000
326		-287.500000
327		-425.000000
328		-1037.500000
329		-235.000000
330		1357.500000
331		212.500000
332		-835.000000
333		340.000000
334		507.500000
335		-272.500000
336		1277.500000
337		-22.500000
338		455.000000
339		365.000000
340		-100.000000
341		-1317.500000
342		645.000000
343		367.500000
344		437.500000
345		-560.000000
346		107.500000
347		472.500000
348		-1035.000000
349		-455.000000
350		-32.500000
351		892.500000
352		-852.500000
353		-175.000000
354		322.500000
355		1047.500000
356		-1355.000000
357		130.000000
358		-390.000000
359		-557.500000
360		552.500000
361		-1432.500000
362		1015.000000
363		-282.500000
364		-1110.000000
365		1127.500000
366		445.000000
367		97.500000
368		-785.000000
369		-90.000000
370		-515.000000
371		-1022.500000
372		-487.500000
373		695.000000
374		-102.500000
375		52.500000
376		-387.500000
377		340.000000
378		340.000000
379		-322.500000
380		-1590.000000
381		400.000000
382		892.500000
383		-182.500000
384		2015.000000
385		1080.000000
386		1117.500000
387		345.000000
388		2057.500000
389		680.000000
390		1637.500000
391		685.000000
392		442.500000
393		-10.000000
394		497.500000
395		-322.500000
396		830.000000
397		1555.000000
398		1137.500000
399		-307.500000
400		-322.500000
401		-680.000000
402		-125.000000
403		-917.500000
404		420.000000
405		450.000000
406		1085.000000
407		-350.000000
408		-730.000000
409		-1207.500000
410		265.000000
411		462.500000
412		-55.000000
413		-1070.000000
414		-510.000000
415		400.000000
416		-230.000000
417		90.000000
418		415.000000
419		1205.000000
420		-312.500000
421		-1145.000000
422		1005.000000
423		-102.500000
424		487.500000
425		22.500000
426		-142.500000
427		222.500000
428		795.000000
429		-260.000000
430		-322.500000
431		-150.000000
432		-132.500000
433		-1435.000000
434		-607.500000
435		-440.000000
436		-207.500000
437		-180.000000
438		-1547.500000
439		-1232.500000
440		-1197.500000
441		870.000000
442		-422.500000
443		-242.500000
444		-80.000000
445		-647.500000
446		-27.500000
447		777.500000
448		-247.500000
449		-202.500000
450		-430.000000
451		-22.500000
452		780.000000
453		240.000000
454		1105.000000
455		765.000000
456		-950.000000
457		1000.000000
458		322.500000
459		-1252.500000
460		610.000000
461		-877.500000
462		20.000000
463		-127.500000
464		185.000000
465		-1537.500000
466		-967.500000
467		-280.000000
468		-117.500000
469		415.000000
470		-610.000000
471		35.000000
472		-170.000000
473		-85.000000
474		502.500000
475		-727.500000
476		-270.000000
477		-1375.000000
478		1337.500000
479		-267.500000
480		-37.500000
481		-1680.000000
482		-470.000000
483		80.000000
484		1097.500000
485		-722.500000
486		132.500000
487		472.500000
488		-1890.000000
489		655.000000
490		-180.000000
491		-860.000000
492		357.500000
493		327.500000
494		-122.500000
495		70.000000
496		-1320.000000
497		565.000000
498		-1902.500000
499		1127.500000
500		1092.500000
501		167.500000
502		-1180.000000
503		995.000000
504		-897.500000
505		-195.000000
506		1675.000000
507		330.000000
508		742.500000
509		1420.000000
510		-605.000000
511		-1240.000000
512		-707.500000
513		-272.500000
514		-765.000000
515		62.500000
516		-1190.000000
517		270.000000
518		1482.500000
519		167.500000
520		1082.500000
521		-845.000000
522		40.000000
523		1407.500000
524		85.000000
525		700.000000
526		-877.500000
527		-682.500000
528		-920.000000
529		-205.000000
530		865.000000
531		-565.000000
532		-637.500000
533		-55.000000
534		-392.500000
535		460.000000
536		-675.000000
537		-225.000000
538		-1100.000000
539		-580.000000
540		627.500000
541		-140.000000
542		-1102.500000
543		-472.500000
544		-32.500000
545		637.500000
546		-637.500000
547		485.000000
548		-200.000000
549		-632.500000
550		-40.000000
551		215.000000
552		-277.500000
553		202.500000
554		-55.000000
555		652.500000
556		190.000000
557		-42.500000
558		-905.000000
559		-22.500000
560		537.500000
561		370.000000
562		-532.500000
563		-167.500000
564		-1490.000000
565		982.500000
566		-510.000000
567		505.000000
568		-1322.500000
569		-505.000000
570		-105.000000
571		-890.000000
572		195.000000
573		1347.500000
574		335.000000
575		-270.000000
576		822.500000
577		1030.000000
578		-1087.500000
579		-997.500000
580		-530.000000
581		-1027.500000
582		-1467.500000
583		-932.500000
584		-940.000000
585		-795.000000
586		202.500000
587		-442.500000
588		450.000000
589		132.500000
590		-1055.000000
591		47.500000
592		1260.000000
593		432.500000
594		592.500000
595		-7.500000
596		-180.000000
597		-482.500000
598		-292.500000
599		145.000000
600		-87.500000
601		-602.500000
602		535.000000
603		710.000000
604		1190.000000
605		1145.000000
606		160.000000
607		-1220.000000
608		205.000000
609		-247.500000
610		217.500000
611		-372.500000
612		-1500.000000
613		-415.000000
614		200.000000
615		-670.000000
616		310.000000
617		442.500000
618		482.500000
619		155.000000
620		-352.500000
621		-537.500000
622		280.000000
623		-897.500000
624		630.000000
625		-5.000000
626		-322.500000
627		1445.000000
628		467.500000
629		-340.000000
630		95.000000
631		1477.500000
632		-665.000000
633		-492.500000
634		292.500000
635		175.000000
636		-327.500000
637		1505.000000
638		-1202.500000
639		-80.000000
640		-97.500000
641		482.500000
642		-325.000000
643		-782.500000
644		147.500000
645		-55.000000
646		-577.500000
647		675.000000
648		272.500000
649		1797.500000
650		-357.500000
651		310.000000
652		-980.000000
653		567.500000
654		-175.000000
655		385.000000
656		-547.500000
657		-50.000000
658		372.500000
659		860.000000
660		1227.500000
661		660.000000
662		702.500000
663		95.000000
664		370.000000
665		660.000000
666		-707.500000
667		1215.000000
668		1440.000000
669		217.500000
670		-1112.500000
671		725.000000
672		1687.500000
673		155.000000
674		-192.500000
675		-117.500000
676		225.000000
677		292.500000
678		585.000000
679		-1982.500000
680		-600.000000
681		-697.500000
682		1027.500000
683		-1672.500000
684		437.500000
685		650.000000
686		-212.500000
687		275.000000
688		740.000000
689		-410.000000
690		582.500000
691		1177.500000
692		-95.000000
693		792.500000
694		-515.000000
695		467.500000
696		-900.000000
697		252.500000
698		-315.000000
699		-1290.000000
700		40.000000
701		-517.500000
702		450.000000
703		-487.500000
704		-1762.500000
705		-562.500000
706		-62.500000
707		-1285.000000
708		335.000000
709		67.500000
710		1080.000000
711		-392.500000
712		-1000.000000
713		-1705.000000
714		337.500000
715		150.000000
716		-607.500000
717		-975.000000
718		1015.000000
719		-1340.000000
720		-112.500000
721		-117.500000
722		795.000000
723		-37.500000
724		-705.000000
725		17.500000
726		-1510.000000
727		217.500000
728		-685.000000
729		-1477.500000
730		332.500000
731		-925.000000
732		2.500000
733		-277.500000
734		-887.500000
735		442.500000
736		740.000000
737		627.500000
738		367.500000
739		-10.000000
740		260.000000
741		740.000000
742		465.000000
743		-17.500000
744		667.500000
745		-622.500000
746		-522.500000
747		1255.000000
748		-1842.500000
749		305.000000
750		272.500000
751		-155.000000
752		-297.500000
753		-1280.000000
754		-1670.000000
755		610.000000
756		857.500000
757		412.500000
758		-12.500000
759		-1272.500000
760		-1540.000000
761		1450.000000
762		1010.000000
763		827.500000
764		-435.000000
765		-1867.500000
766		1400.000000
767		-237.500000
768		-987.500000
769		240.000000
770		-702.500000
771		-210.000000
772		960.000000
773		-445.000000
774		-752.500000
775		-210.000000
776		-965.000000
777		-140.000000
778		787.500000
779		1712.500000
780		-57.500000
781		-352.500000
782		-755.000000
783		55.000000
784		262.500000
785		372.500000
786		-920.000000
787		-112.500000
788		500.000000
789		65.000000
790		1415.000000
791		-482.500000
792		-485.000000
793		240.000000
794		-1780.000000
795		-905.000000
796		-127.500000
797		-1397.500000
798		650.000000
799		265.000000
800		-930.000000
801		-1002.500000
802		-1605.000000
803		-232.500000
804		1305.000000
805		615.000000
806		-1227.500000
807		717.500000
808		557.500000
809		212.500000
810		765.000000
811		642.500000
812		-210.000000
813		-780.000000
814		-1615.000000
815		447.500000
816		97.500000
817		577.500000
818		-487.500000
819		585.000000
820		847.500000
821		147.500000
822		-402.500000
823		785.000000
824		952.500000
825		705.000000
826		-1225.000000
827		-275.000000
828		-550.000000
829		-105.000000
830		97.500000
831		680.000000
832		-290.000000
833		335.000000
834		150.000000
835		677.500000
836		465.000000
837		-1387.500000
838		-515.000000
839		-547.500000
840		247.500000
841		700.000000
842		-872.500000
843		-277.500000
844		-317.500000
845		-480.000000
846		-522.500000
847		-315.000000
848		532.500000
849		-577.500000
850		-1075.000000
851		-1340.000000
852		-1425.000000
853		440.000000
854		317.500000
855		-480.000000
856		645.000000
857		-402.500000
858		-102.500000
859		560.000000
860		180.000000
861		-705.000000
862		-222.500000
863		-757.500000
864		-685.000000
865		-2360.000000
866		32.500000
867		500.000000
868		-2302.500000
869		390.000000
870		327.500000
871		827.500000
872		402.500000
873		-357.500000
874		157.500000
875		407.500000
876		392.500000
877		-157.500000
878		-492.500000
879		1160.000000
880		-410.000000
881		-325.000000
882		190.000000
883		-360.000000
884		-482.500000
885		827.500000
886		-262.500000
887		-520.000000
888		-110.000000
889		180.000000
890		25.000000
891		-1225.000000
892		-320.000000
893		270.000000
894		982.500000
895		262.500000
896		-1407.500000
897		-745.000000
898		-472.500000
899		-667.500000
900		-465.000000
901		1217.500000
902		277.500000
903		1800.000000
904		-952.500000
905		-1097.500000
906		287.500000
907		1532.500000
908		-22.500000
909		-420.000000
910		-732.500000
911		-5.000000
912		125.000000
913		-640.000000
914		1572.500000
915		95.000000
916		1140.000000
917		-937.500000
918		525.000000
919		15.000000
920		532.500000
921		-180.000000
922		-840.000000
923		905.000000
924		452.500000
925		630.000000
926		-935.000000
927		600.000000
928		-302.500000
929		-520.000000
930		-367.500000
931		-1510.000000
932		-190.000000
933		-355.000000
934		190.000000
935		-307.500000
936		-547.500000
937		-125.000000
938		127.500000
939		322.500000
940		-1270.000000
941		75.000000
942		562.500000
943		237.500000
944		940.000000
945		377.500000
946		-647.500000
947		-945.000000
948		117.500000
949		572.500000
950		-1282.500000
951		1295.000000
952		1085.000000
953		750.000000
954		1022.500000
955		462.500000
956		570.000000
957		287.500000
958		1255.000000
959		302.500000
960		317.500000
961		-662.500000
962		427.500000
963		-360.000000
964		57.500000
965		367.500000
966		-552.500000
967		-490.000000
968		-605.000000
969		-1260.000000
970		2207.500000
971		-57.500000
972		-752.500000
973		1230.000000
974		135.000000
975		1320.000000
976		1497.500000
977		-325.000000
978		-870.000000
979		-210.000000
980		-732.500000
981		172.500000
982		-885.000000
983		90.000000
984		1302.500000
985		-872.500000
986		-510.000000
987		-1095.000000
988		-655.000000
989		-307.500000
990		-1817.500000
991		-1297.500000
992		800.000000
993		-567.500000
994		372.500000
995		-2015.000000
996		-107.500000
997		-195.000000
998		1187.500000
999		-790.000000
1000		-1130.000000
1001		1117.500000
1002		-840.000000
1003		137.500000
1004		-792.500000
1005		-1267.500000
1006		-177.500000
1007		140.000000
1008		1075.000000
1009		-347.500000
1010		660.000000
1011		707.500000
1012		1115.000000
1013		342.500000
1014		-552.500000
1015		355.000000
1016		650.000000
1017		-637.500000
1018		-150.000000
1019		-210.000000
1020		-295.000000
1021		762.500000
1022		-265.000000
1023		-752.500000
1024		245.000000
1025		375.000000
1026		465.000000
1027		-925.000000
1028		-497.500000
1029		185.000000
1030		-770.000000
1031		-165.000000
1032		-550.000000
1033		1447.500000
1034		-765.000000
1035		1067.500000
1036		-2015.000000
1037		-1292.500000
1038		-370.000000
1039		-345.000000
1040		-1077.500000
1041		282.500000
1042		-25.000000
1043		155.000000
1044		1362.500000
1045		222.500000
1046		-1147.500000
1047		1230.000000
1048		317.500000
1049		317.500000
1050		-12.500000
1051		422.500000
1052		-1525.000000
1053		395.000000
1054		910.000000
1055		-1292.500000
1056		567.500000
1057		330.000000
1058		-667.500000
1059		682.500000
1060		-1272.500000
1061		755.000000
1062		-562.500000
1063		-267.500000
1064		-292.500000
1065		-1000.000000
1066		-52.500000
1067		935.000000
1068		-150.000000
1069		-1557.500000
1070		-342.500000
1071		-512.500000
1072		-1475.000000
1073		-587.500000
1074		1030.000000
1075		482.500000
1076		-1037.500000
1077		-950.000000
1078		737.500000
1079		587.500000
1080		10.000000
1081		-560.000000
1082		337.500000
1083		-1227.500000
1084		172.500000
1085		-762.500000
1086		-990.000000
1087		-992.500000
1088		-852.500000
1089		1065.000000
1090		-195.000000
1091		-400.000000
1092		1195.000000
1093		-1090.000000
1094		-80.000000
1095		-77.500000
1096		-145.000000
1097		-435.000000
1098		55.000000
1099		125.000000
1100		-800.000000
1101		-845.000000
1102		1600.000000
1103		925.000000
1104		-875.000000
1105		-857.500000
1106		250.000000
1107		417.500000
1108		-1270.000000
1109		312.500000
1110		-155.000000
1111		-875.000000
1112		-1832.500000
1113		862.500000
1114		-30.000000
1115		-1007.500000
1116		-715.000000
1117		-1220.000000
1118		122.500000
1119		762.500000
1120		830.000000
1121		575.000000
1122		1122.500000
1123		-640.000000
1124		-805.000000
1125		752.500000
1126		-207.500000
1127		-1325.000000
1128		592.500000
1129		-492.500000
1130		692.500000
1131		560.000000
1132		160.000000
1133		287.500000
1134		175.000000
1135		762.500000
1136		-32.500000
1137		-1022.500000
1138		-1015.000000
1139		1500.000000
1140		-372.500000
1141		962.500000
1142		-172.500000
1143		-112.500000
1144		917.500000
1145		737.500000
1146		-635.000000
1147		295.000000
1148		442.500000
1149		-227.500000
1150		287.500000
1151		-500.000000
1152		-310.000000
1153		-1562.500000
1154		-755.000000
1155		-692.500000
1156		-37.500000
1157		70.000000
1158		200.000000
1159		-1825.000000
1160		-10.000000
1161		-860.000000
1162		-250.000000
1163		562.500000
1164		-127.500000
1165		1660.000000
1166		-480.000000
1167		-1417.500000
1168		440.000000
1169		-757.500000
1170		972.500000
1171		50.000000
1172		-975.000000
1173		150.000000
1174		-1367.500000
1175		-930.000000
1176		-310.000000
1177		185.000000
1178		-910.000000
1179		-1187.500000
1180		-780.000000
1181		1357.500000
1182		-95.000000
1183		1340.000000
1184		-250.000000
1185		-732.500000
1186		-537.500000
1187		1480.000000
1188		1015.000000
1189		665.000000
1190		1790.000000
1191		1465.000000
1192		-525.000000
1193		107.500000
1194		922.500000
1195		222.500000
1196		-2.500000
1197		-355.000000
1198		600.000000
1199		-890.000000
1200		-597.500000
1201		220.000000
1202		385.000000
1203		72.500000
1204		305.000000
1205		-35.000000
1206		80.000000
1207		-1025.000000
1208		1252.500000
1209		-682.500000
1210		892.500000
1211		-1780.000000
1212		-1150.000000
1213		-237.500000
1214		95.000000
1215		-152.500000
1216		-425.000000
1217		217.500000
1218		-50.000000
1219		1112.500000
1220		140.000000
1221		1457.500000
1222		227.500000
1223		-332.500000
1224		-145.000000
1225		217.500000
1226		-460.000000
1227		795.000000
1228		-625.000000
1229		-272.500000
1230		-570.000000
1231		957.500000
1232		-337.500000
1233		15.000000
1234		472.500000
1235		-662.500000
1236		50.000000
1237		355.000000
1238		-1417.500000
1239		-607.500000
1240		-400.000000
1241		530.000000
1242		772.500000
1243		-402.500000
1244		835.000000
1245		-62.500000
1246		520.000000
1247		-687.500000
1248		117.500000
1249		-302.500000
1250		-570.000000
1251		800.000000
1252		-977.500000
1253		1605.000000
1254		-205.000000
1255		-1467.500000
1256		82.500000
1257		152.500000
1258		-397.500000
1259		-1197.500000
1260		75.000000
1261		-682.500000
1262		-935.000000
1263		-710.000000
1264		1005.000000
1265		1130.000000
1266		357.500000
1267		687.500000
1268		1367.500000
1269		1030.000000
1270		-187.500000
1271		-115.000000
1272		832.500000
1273		-560.000000
1274		-92.500000
1275		365.000000
1276		382.500000
1277		-1185.000000
1278		812.500000
1279		1465.000000
1280		87.500000
1281		680.000000
1282		1162.500000
1283		1137.500000
1284		-865.000000
1285		1235.000000
1286		495.000000
1287		1957.500000
1288		505.000000
1289		765.000000
1290		960.000000
1291		107.500000
1292		-1242.500000
1293		1247.500000
1294		380.000000
1295		-162.500000
1296		-527.500000
1297		-1462.500000
1298		-1182.500000
1299		-1525.000000
1300		65.000000
1301		640.000000
1302		-545.000000
1303		380.000000
1304		1430.000000
1305		-420.000000
1306		125.000000
1307		1095.000000
1308		-680.000000
1309		1085.000000
1310		717.500000
1311		-940.000000
1312		-922.500000
1313		-452.500000
1314		-2195.000000
1315		-952.500000
1316		425.000000
1317		910.000000
1318		-1555.000000
1319		-1085.000000
1320		-512.500000
1321		395.000000
1322		-762.500000
1323		-1707.500000
1324		-1365.000000
1325		-480.000000
1326		-172.500000
1327		250.000000
1328		-315.000000
1329		525.000000
1330		-222.500000
1331		477.500000
1332		960.000000
1333		1410.000000
1334		5.000000
1335		-32.500000
1336		-1052.500000
1337		1630.000000
1338		177.500000
1339		-892.500000
1340		965.000000
1341		-305.000000
1342		2.500000
1343		-237.500000
1344		822.500000
1345		-1185.000000
1346		1155.000000
1347		-1097.500000
1348		232.500000
1349		-867.500000
1350		577.500000
1351		-1430.000000
1352		-390.000000
1353		965.000000
1354		1470.000000
1355		770.000000
1356		-945.000000
1357		-1140.000000
1358		1627.500000
1359		442.500000
1360		535.000000
1361		942.500000
1362		1212.500000
1363		492.500000
1364		-437.500000
1365		-615.000000
1366		-597.500000
1367		-192.500000
1368		-1407.500000
1369		-660.000000
1370		-842.500000
1371		-732.500000
1372		-340.000000
1373		-717.500000
1374		230.000000
1375		350.000000
1376		140.000000
1377		-1212.500000
1378		-547.500000
1379		735.000000
1380		1362.500000
1381		1767.500000
1382		-1037.500000
1383		-302.500000
1384		397.500000
1385		942.500000
1386		1202.500000
1387		-285.000000
1388		-155.000000
1389		-905.000000
1390		302.500000
1391		877.500000
1392		-30.000000
1393		-15.000000
1394		82.500000
1395		-1255.000000
1396		-177.500000
1397		127.500000
1398		140.000000
1399		237.500000
1400		-40.000000
1401		1155.000000
1402		-842.500000
1403		-152.500000
1404		-365.000000
1405		-1140.000000
1406		-467.500000
1407		-532.500000
1408		-115.000000
1409		200.000000
1410		210.000000
1411		97.500000
1412		462.500000
1413		-1142.500000
1414		-1065.000000
1415		-740.000000
1416		612.500000
1417		-437.500000
1418		785.000000
1419		-425.000000
1420		87.500000
1421		-295.000000
1422		-212.500000
1423		-1290.000000
1424		562.500000
1425		-802.500000
1426		325.000000
1427		-62.500000
1428		182.500000
1429		-762.500000
1430		215.000000
1431		432.500000
1432		832.500000
1433		1762.500000
1434		-257.500000
1435		85.000000
1436		-2190.000000
1437		372.500000
1438		-892.500000
1439		-80.000000
1440		610.000000
1441		-1522.500000
1442		47.500000
1443		-1402.500000
1444		392.500000
1445		-660.000000
1446		-247.500000
1447		-175.000000
1448		1750.000000
1449		-865.000000
1450		1275.000000
1451		-1327.500000
1452		807.500000
1453		-465.000000
1454		-830.000000
1455		-127.500000
1456		1327.500000
1457		-20.000000
1458		1587.500000
1459		-205.000000
1460		-10.000000
1461		-737.500000
1462		1685.000000
1463		582.500000
1464		-430.000000
1465		-2257.500000
1466		222.500000
1467		-470.000000
1468		-410.000000
1469		-1735.000000
1470		210.000000
1471		1167.500000
1472		1027.500000
1473		-1037.500000
1474		1037.500000
1475		22.500000
1476		-245.000000
1477		-992.500000
1478		-405.000000
1479		-295.000000
1480		-787.500000
1481		-902.500000
1482		1285.000000
1483		-1022.500000
1484		-442.500000
1485		1187.500000
1486		-715.000000
1487		-785.000000
1488		332.500000
1489		297.500000
1490		-72.500000
1491		177.500000
1492		-917.500000
1493		-442.500000
1494		677.500000
1495		-227.500000
1496		650.000000
1497		415.000000
1498		-987.500000
1499		65.000000
1500		-382.500000
1501		-1240.000000
1502		-155.000000
1503		40.000000
1504		-1422.500000
1505		337.500000
1506		-505.000000
1507		-5.000000
1508		162.500000
1509		485.000000
1510		-587.500000
1511		120.000000
1512		-250.000000
1513		1167.500000
1514		-747.500000
1515		177.500000
1516		-45.000000
1517		-540.000000
1518		-152.500000
1519		247.500000
1520		-432.500000
1521		-1365.000000
1522		-462.500000
1523		-430.000000
1524		-110.000000
1525		-730.000000
1526		657.500000
1527		457.500000
1528		297.500000
1529		880.000000
1530		-2.500000
1531		-842.500000
1532		-1035.000000
1533		1322.500000
1534		-862.500000
1535		-82.500000
1536		77.500000
1537		42.500000
1538		-475.000000
1539		-2380.000000
1540		460.000000
1541		-1270.000000
1542		-1287.500000
1543		887.500000
1544		-1212.500000
1545		-1540.000000
1546		-1532.500000
1547		-162.500000
1548		12.500000
1549		-77.500000
1550		-757.500000
1551		-290.000000
1552		-162.500000
1553		20.000000
1554		442.500000
1555		827.500000
1556		-982.500000
1557		625.000000
1558		-225.000000
1559		692.500000
1560		-372.500000
1561		-882.500000
1562		1160.000000
1563		140.000000
1564		-257.500000
1565		185.000000
1566		372.500000
1567		450.000000
1568		-900.000000
1569		-507.500000
1570		100.000000
1571		-232.500000
1572		672.500000
1573		-652.500000
1574		60.000000
1575		447.500000
1576		-47.500000
1577		-52.500000
1578		-1605.000000
1579		-245.000000
1580		-495.000000
1581		-477.500000
1582		207.500000
1583		62.500000
1584		-302.500000
1585		815.000000
1586		267.500000
1587		955.000000
1588		385.000000
1589		1075.000000
1590		400.000000
1591		-125.000000
1592		-1270.000000
1593		822.500000
1594		-1017.500000
1595		-262.500000
1596		-617.500000
1597		-172.500000
1598		767.500000
1599		-45.000000
1600		670.000000
1601		-345.000000
1602		-802.500000
1603		-492.500000
1604		-230.000000
1605		-167.500000
1606		-207.500000
1607		1467.500000
1608		-910.000000
1609		-70.000000
1610		-880.000000
1611		-620.000000
1612		1562.500000
1613		552.500000
1614		-162.500000
1615		467.500000
1616		-32.500000
1617		145.000000
1618		-272.500000
1619		-317.500000
1620		-920.000000
1621		300.000000
1622		-440.000000
1623		1817.500000
1624		-267.500000
1625		-652.500000
1626		325.000000
1627		-972.500000
1628		-1135.000000
1629		1725.000000
1630		-1350.000000
1631		-695.000000
1632		182.500000
1633		90.000000
1634		337.500000
1635		672.500000
1636		717.500000
1637		1175.000000
1638		-1270.000000
1639		-635.000000
1640		-342.500000
1641		-372.500000
1642		-1162.500000
1643		-1057.500000
1644		-840.000000
1645		955.000000
1646		1270.000000
1647		-415.000000
1648		887.500000
1649		1157.500000
1650		72.500000
1651		-615.000000
1652		702.500000
1653		-362.500000
1654		402.500000
1655		635.000000
1656		832.500000
1657		-1102.500000
1658		-1767.500000
1659		-1437.500000
1660		-310.000000
1661		-552.500000
1662		-402.500000
1663		-437.500000
1664		937.500000
1665		-270.000000
1666		-387.500000
1667		795.000000
1668		565.000000
1669		-952.500000
1670		355.000000
1671		360.000000
1672		777.500000
1673		1252.500000
1674		97.500000
1675		-205.000000
1676		-210.000000
1677		-110.000000
1678		597.500000
1679		730.000000
1680		-1632.500000
1681		890.000000
1682		-472.500000
1683		-980.000000
1684		-387.500000
1685		592.500000
1686		1060.000000
1687		10.000000
1688		-460.000000
1689		1130.000000
1690		-362.500000
1691		-60.000000
1692		330.000000
1693		962.500000
1694		675.000000
1695		-97.500000
1696		-602.500000
1697		-902.500000
1698		-190.000000
1699		-1005.000000
1700		1235.000000
1701		-307.500000
1702		-1027.500000
1703		-462.500000
1704		-297.500000
1705		1037.500000
1706		-110.000000
1707		-1917.500000
1708		-1707.500000
1709		-1000.000000
1710		-850.000000
1711		367.500000
1712		1127.500000
1713		-757.500000
1714		587.500000
1715		530.000000
1716		1302.500000
1717		-1082.500000
1718		1357.500000
1719		570.000000
1720		-1000.000000
1721		240.000000
1722		1620.000000
1723		67.500000
1724		200.000000
1725		-77.500000
1726		-385.000000
1727		-1250.000000
1728		412.500000
1729		-647.500000
1730		-217.500000
1731		-465.000000
1732		500.000000
1733		-570.000000
1734		-852.500000
1735		227.500000
1736		880.000000
1737		-1015.000000
1738		-510.000000
1739		762.500000
1740		-470.000000
1741		1232.500000
1742		787.500000
1743		-507.500000
1744		280.000000
1745		-157.500000
1746		-1432.500000
1747		1145.000000
1748		-1790.000000
1749		-417.500000
1750		1087.500000
1751		-1507.500000
1752		482.500000
1753		727.500000
1754		1695.000000
1755		2077.500000
1756		-742.500000
1757		12.500000
1758		1090.000000
1759		30.000000
1760		-967.500000
1761		47.500000
1762		385.000000
1763		470.000000
1764		-617.500000
1765		-120.000000
1766		-1212.500000
1767		-270.000000
1768		-477.500000
1769		-312.500000
1770		-315.000000
1771		270.000000
1772		297.500000
1773		287.500000
1774		990.000000
1775		-720.000000
1776		490.000000
1777		-320.000000
1778		-450.000000
1779		-872.500000
1780		-997.500000
1781		-1052.500000
1782		-300.000000
1783		307.500000
1784		-1325.000000
1785		30.000000
1786		337.500000
1787		-1610.000000
1788		-42.500000
1789		-1432.500000
1790		730.000000
1791		882.500000
1792		562.500000
1793		35.000000
1794		-1430.000000
1795		665.000000
1796		517.500000
1797		-385.000000
1798		-147.500000
1799		900.000000
1800		210.000000
1801		-1000.000000
1802		402.500000
1803		-300.000000
1804		-652.500000
1805		277.500000
1806		-302.500000
1807		115.000000
1808		352.500000
1809		-80.000000
1810		602.500000
1811		-637.500000
1812		-457.500000
1813		357.500000
1814		-275.000000
1815		1080.000000
1816		1785.000000
1817		97.500000
1818		-192.500000
1819		925.000000
1820		350.000000
1821		-585.000000
1822		-445.000000
1823		-22.500000
1824		737.500000
1825		897.500000
1826		280.000000
1827		-880.000000
1828		-127.500000
1829		457.500000
1830		1007.500000
1831		360.000000
1832		-720.000000
1833		582.500000
1834		-1837.500000
1835		1340.000000
1836		-1065.000000
1837		1267.500000
1838		-1190.000000
1839		-507.500000
1840		-725.000000
1841		-780.000000
1842		660.000000
1843		-502.500000
1844		-880.000000
1845		1712.500000
1846		232.500000
1847		255.000000
1848		400.000000
1849		162.500000
1850		1270.000000
1851		385.000000
1852		45.000000
1853		1137.500000
1854		-777.500000
1855		482.500000
1856		-555.000000
1857		-340.000000
1858		1330.000000
1859		97.500000
1860		-987.500000
1861		-352.500000
1862		670.000000
1863		-452.500000
1864		-665.000000
1865		1000.000000
1866		-260.000000
1867		1155.000000
1868		387.500000
1869		42.500000
1870		345.000000
1871		-1197.500000
1872		97.500000
1873		375.000000
1874		252.500000
1875		-1145.000000
1876		-1145.000000
1877		-402.500000
1878		785.000000
1879		975.000000
1880		252.500000
1881		-455.000000
1882		1712.500000
1883		287.500000
1884		245.000000
1885		587.500000
1886		722.500000
1887		760.000000
1888		1225.000000
1889		140.000000
1890		427.500000
1891		-652.500000
1892		502.500000
1893		-620.000000
1894		1127.500000
1895		-535.000000
1896		145.000000
1897		825.000000
1898		-1487.500000
1899		-632.500000
1900		380.000000
1901		540.000000
1902		875.000000
1903		-280.000000
1904		787.500000
1905		602.500000
1906		487.500000
1907		-862.500000
1908		-315.000000
1909		20.000000
1910		-1272.500000
1911		-797.500000
1912		-310.000000
1913		805.000000
1914		-932.500000
1915		517.500000
1916		-650.000000
1917		185.000000
1918		37.500000
1919		-75.000000
1920		387.500000
1921		2132.500000
1922		-290.000000
1923		-1125.000000
1924		240.000000
1925		1325.000000
1926		27.500000
1927		437.500000
1928		207.500000
1929		-362.500000
1930		720.000000
1931		277.500000
1932		-1177.500000
1933		1377.500000
1934		605.000000
1935		-222.500000
1936		665.000000
1937		125.000000
1938		477.500000
1939		-665.000000
1940		-12.500000
1941		717.500000
1942		-560.000000
1943		-1450.000000
1944		682.500000
1945		-620.000000
1946		245.000000
1947		865.000000
1948		282.500000
1949		-900.000000
1950		630.000000
1951		1445.000000
1952		-185.000000
1953		-667.500000
1954		255.000000
1955		1585.000000
1956		-1057.500000
1957		-1620.000000
1958		-155.000000
1959		-1085.000000
1960		-512.500000
1961		-1015.000000
1962		1162.500000
1963		-402.500000
1964		-622.500000
1965		667.500000
1966		-1492.500000
1967		-482.500000
1968		852.500000
1969		-677.500000
1970		-975.000000
1971		765.000000
1972		580.000000
1973		-1052.500000
1974		-1187.500000
1975		1175.000000
1976		2237.500000
1977		25.000000
1978		-372.500000
1979		2.500000
1980		162.500000
1981		-2202.500000
1982		257.500000
1983		290.000000
1984		-1010.000000
1985		-97.500000
1986		-307.500000
1987		-425.000000
1988		607.500000
1989		-670.000000
1990		-1020.000000
1991		392.500000
1992		12.500000
1993		1245.000000
1994		1507.500000
1995		387.500000
1996		545.000000
1997		-2092.500000
1998		592.500000
1999		1170.000000
2000		-222.500000
2001		475.000000
2002		-747.500000
2003		-1165.000000
2004		330.000000
2005		445.000000
2006		-1252.500000
2007		1215.000000
2008		-490.000000
2009		1247.500000
2010		467.500000
2011		-282.500000
2012		-952.500000
2013		-772.500000
2014		-1175.000000
2015		670.000000
2016		-195.000000
2017		740.000000
2018		80.000000
2019		490.000000
2020		880.000000
2021		-1722.500000
2022		-1462.500000
2023		190.000000
2024		457.500000
2025		-777.500000
2026		200.000000
2027		-835.000000
2028		-1090.000000
2029		-105.000000
2030		547.500000
2031		1222.500000
2032		-1257.500000
2033		2130.000000
2034		-367.500000
2035		-135.000000
2036		492.500000
2037		-1155.000000
2038		-440.000000
2039		352.500000
2040		-787.500000
2041		-15.000000
2042		-210.000000
2043		-197.500000
2044		150.000000
2045		-1700.000000
2046		-1022.500000
2047		-100.000000
2048		580.000000
2049		537.500000
2050		-700.000000
2051		-1407.500000
2052		-642.500000
2053		-1277.500000
2054		-102.500000
2055		-55.000000
2056		110.000000
2057		-1192.500000
2058		-605.000000
2059		-85.000000
2060		717.500000
2061		-612.500000
2062		747.500000
2063		-1695.000000
2064		462.500000
2065		-67.500000
2066		-662.500000
2067		-172.500000
2068		-1420.000000
2069		-837.500000
2070		-540.000000
2071		-1110.000000
2072		1262.500000
2073		142.500000
2074		22.500000
2075		-637.500000
2076		-477.500000
2077		1327.500000
2078		445.000000
2079		-575.000000
2080		-892.500000
2081		-1210.000000
2082		850.000000
2083		-877.500000
2084		987.500000
2085		62.500000
2086		142.500000
2087		-882.500000
2088		-877.500000
2089		687.500000
2090		722.500000
2091		-407.500000
2092		-970.000000
2093		-1530.000000
2094		1110.000000
2095		937.500000
2096		1207.500000
2097		-262.500000
2098		-492.500000
2099		-450.000000
2100		572.500000
2101		275.000000
2102		865.000000
2103		-55.000000
2104		-615.000000
2105		1240.000000
2106		-1077.500000
2107		417.500000
2108		77.500000
2109		-1165.000000
2110		-557.500000
2111		742.500000
2112		-995.000000
2113		1000.000000
2114		-490.000000
2115		1467.500000
2116		-1272.500000
2117		797.500000
2118		-1705.000000
2119		-62.500000
2120		492.500000
2121		517.500000
2122		350.000000
2123		685.000000
2124		1137.500000
2125		-835.000000
2126		520.000000
2127		617.500000
2128		552.500000
2129		-437.500000
2130		-975.000000
2131		-52.500000
2132		340.000000
2133		17.500000
2134		-132.500000
2135		-342.500000
2136		-177.500000
2137		552.500000
2138		1325.000000
2139		282.500000
2140		-17.500000
2141		-127.500000
2142		-605.000000
2143		-842.500000
2144		-807.500000
2145		27.500000
2146		-1472.500000
2147		1187.500000
2148		-435.000000
2149		-205.000000
2150		840.000000
2151		-392.500000
2152		-277.500000
2153		-375.000000
2154		1167.500000
2155		1202.500000
2156		-225.000000
2157		725.000000
2158		-915.000000
2159		-1495.000000
2160		-122.500000
2161		755.000000
2162		-97.500000
2163		-117.500000
2164		-730.000000
2165		-307.500000
2166		990.000000
2167		-592.500000
2168		797.500000
2169		-100.000000
2170		1192.500000
2171		207.500000
2172		-132.500000
2173		5.000000
2174		890.000000
2175		520.000000
2176		50.000000
2177		187.500000
2178		1002.500000
2179		825.000000
2180		-517.500000
2181		-397.500000
2182		515.000000
2183		742.500000
2184		757.500000
2185		-10.000000
2186		-25.000000
2187		1480.000000
2188		587.500000
2189		335.000000
2190		-172.500000
2191		165.000000
2192		350.000000
2193		790.000000
2194		-412.500000
2195		-1497.500000
2196		-350.000000
2197		-370.000000
2198		-640.000000
2199		932.500000
2200		-640.000000
2201		1087.500000
2202		140.000000
2203		-632.500000
2204		1100.000000
2205		-792.500000
2206		787.500000
2207		-665.000000
2208		-1045.000000
2209		255.000000
2210		762.500000
2211		710.000000
2212		320.000000
2213		-497.500000
2214		760.000000
2215		340.000000
2216		-1095.000000
2217		1937.500000
2218		380.000000
2219		-95.000000
2220		427.500000
2221		140.000000
2222		-105.000000
2223		657.500000
2224		737.500000
2225		775.000000
2226		-67.500000
2227		-1682.500000
2228		727.500000
2229		-827.500000
2230		95.000000
2231		50.000000
2232		-495.000000
2233		-77.500000
2234		692.500000
2235		912.500000
2236		-600.000000
2237		1320.000000
2238		1295.000000
2239		-180.000000
2240		-360.000000
2241		-177.500000
2242		-57.500000
2243		-510.000000
2244		-817.500000
2245		-877.500000
2246		-1615.000000
2247		-335.000000
2248		-385.000000
2249		-582.500000
2250		-90.000000
2251		737.500000
2252		-252.500000
2253		-957.500000
2254		-232.500000
2255		1682.500000
2256		1172.500000
2257		-1927.500000
2258		-1677.500000
2259		-747.500000
2260		-1430.000000
2261		-730.000000
2262		-312.500000
2263		-367.500000
2264		92.500000
2265		192.500000
2266		-685.000000
2267		1502.500000
2268		-757.500000
2269		60.000000
2270		-947.500000
2271		0.000000
2272		442.500000
2273		372.500000
2274		-312.500000
2275		-572.500000
2276		-500.000000
2277		-322.500000
2278		-7.500000
2279		985.000000
2280		-1322.500000
2281		-282.500000
2282		-762.500000
2283		1070.000000
2284		-1042.500000
2285		1245.000000
2286		780.000000
2287		852.500000
2288		-560.000000
2289		-837.500000
2290		-480.000000
2291		-1972.500000
2292		-572.500000
2293		-1187.500000
2294		-462.500000
2295		-307.500000
2296		-852.500000
2297		257.500000
2298		-1487.500000
2299		587.500000
2300		932.500000
2301		-610.000000
2302		-297.500000
2303		1150.000000
2304		587.500000
2305		-1105.000000
2306		87.500000
2307		-462.500000
2308		-837.500000
2309		-700.000000
2310		-1662.500000
2311		745.000000
2312		-495.000000
2313		-845.000000
2314		-52.500000
2315		1762.500000
2316		382.500000
2317		-152.500000
2318		-1345.000000
2319		-622.500000
2320		387.500000
2321		127.500000
2322		67.500000
2323		-857.500000
2324		635.000000
2325		915.000000
2326		-910.000000
2327		-430.000000
2328		1135.000000
2329		-15.000000
2330		527.500000
2331		1077.500000
2332		402.500000
2333		40.000000
2334		90.000000
2335		-1222.500000
2336		7.500000
2337		1080.000000
2338		-635.000000
2339		-1125.000000
2340		-567.500000
2341		690.000000
2342		-912.500000
2343		935.000000
2344		790.000000
2345		-227.500000
2346		95.000000
2347		-1352.500000
2348		-1005.000000
2349		-1410.000000
2350		-1575.000000
2351		310.000000
2352		620.000000
2353		-752.500000
2354		37.500000
2355		607.500000
2356		-1162.500000
2357		1285.000000
2358		-385.000000
2359		1330.000000
2360		120.000000
2361		-130.000000
2362		650.000000
2363		407.500000
2364		-785.000000
2365		2345.000000
2366		-635.000000
2367		-592.500000
2368		-1510.000000
2369		460.000000
2370		70.000000
2371		-697.500000
2372		-507.500000
2373		22.500000
2374		-822.500000
2375		1105.000000
2376		190.000000
2377		890.000000
2378		687.500000
2379		557.500000
2380		-282.500000
2381		-1030.000000
2382		-162.500000
2383		-282.500000
2384		65.000000
2385		1302.500000
2386		-1035.000000
2387		992.500000
2388		-252.500000
2389		760.000000
2390		-1260.000000
2391		-32.500000
2392		-22.500000
2393		-302.500000
2394		567.500000
2395		-752.500000
2396		-1800.000000
2397		475.000000
2398		-50.000000
2399		230.000000
2400		-720.000000
2401		1280.000000
2402		-2095.000000
2403		-1240.000000
2404		482.500000
2405		-355.000000
2406		-1662.500000
2407		-1332.500000
2408		-280.000000
2409		112.500000
2410		967.500000
2411		212.500000
2412		-1455.000000
2413		542.500000
2414		-1122.500000
2415		152.500000
2416		-545.000000
2417		-500.000000
2418		-502.500000
2419		242.500000
2420		980.000000
2421		1925.000000
2422		-820.000000
2423		-760.000000
2424		495.000000
2425		-535.000000
2426		-182.500000
2427		295.000000
2428		565.000000
2429		-915.000000
2430		-495.000000
2431		440.000000
2432		-542.500000
2433		290.000000
2434		2.500000
2435		432.500000
2436		-615.000000
2437		312.500000
2438		-447.500000
2439		-452.500000
2440		-1077.500000
2441		-1022.500000
2442		-772.500000
2443		-282.500000
2444		855.000000
2445		575.000000
2446		-260.000000
2447		610.000000
2448		1730.000000
2449		835.000000
2450		1485.000000
2451		882.500000
2452		-550.000000
2453		757.500000
2454		-292.500000
2455		-822.500000
2456		442.500000
2457		312.500000
2458		1440.000000
2459		-792.500000
2460		-435.000000
2461		-527.500000
2462		-310.000000
2463		665.000000
2464		1355.000000
2465		907.500000
2466		-970.000000
2467		-660.000000
2468		1270.000000
2469		215.000000
2470		662.500000
2471		-177.500000
2472		1307.500000
2473		1242.500000
2474		-12.500000
2475		-315.000000
2476		-1017.500000
2477		30.000000
2478		915.000000
2479		1425.000000
2480		85.000000
2481		747.500000
2482		842.500000
2483		620.000000
2484		930.000000
2485		567.500000
2486		-400.000000
2487		890.000000
2488		-122.500000
2489		-107.500000
2490		-820.000000
2491		467.500000
2492		-572.500000
2493		7.500000
2494		500.000000
2495		675.000000
2496		740.000000
2497		-2.500000
2498		-730.000000
2499		665.000000
2500		705.000000
2501		-1485.000000
2502		-1137.500000
2503		-132.500000
2504		-1485.000000
2505		1477.500000
2506		970.000000
2507		257.500000
2508		-430.000000
2509		-765.000000
2510		-442.500000
2511		690.000000
2512		-1257.500000
2513		427.500000
2514		612.500000
2515		-1060.000000
2516		-392.500000
2517		125.000000
2518		-517.500000
2519		-1030.000000
2520		-322.500000
2521		-485.000000
2522		1682.500000
2523		-617.500000
2524		-17.500000
2525		1532.500000
2526		230.000000
2527		-262.500000
2528		-1527.500000
2529		-77.500000
2530		97.500000
2531		-532.500000
2532		-622.500000
2533		1420.000000
2534		612.500000
2535		-162.500000
2536		625.000000
2537		30.000000
2538		-315.000000
2539		-512.500000
2540		-235.000000
2541		-35.000000
2542		-10.000000
2543		422.500000
2544		-342.500000
2545		-570.000000
2546		232.500000
2547		607.500000
2548		-520.000000
2549		332.500000
2550		-787.500000
2551		-1260.000000
2552		275.000000
2553		-1135.000000
2554		-977.500000
2555		1610.000000
2556		-405.000000
2557		-1075.000000
2558		152.500000
2559		472.500000
2560		-1750.000000
2561		-380.000000
2562		432.500000
2563		257.500000
2564		795.000000
2565		277.500000
2566		-587.500000
2567		-1037.500000
2568		-515.000000
2569		257.500000
2570		-295.000000
2571		-885.000000
2572		-2092.500000
2573		400.000000
2574		125.000000
2575		-455.000000
2576		-445.000000
2577		712.500000
2578		805.000000
2579		895.000000
2580		755.000000
2581		280.000000
2582		-52.500000
2583		30.000000
2584		1012.500000
2585		-427.500000
2586		-230.000000
2587		1222.500000
2588		-2090.000000
2589		-427.500000
2590		-1362.500000
2591		-540.000000
2592		1040.000000
2593		567.500000
2594		785.000000
2595		-497.500000
2596		-1327.500000
2597		-1435.000000
2598		-265.000000
2599		-725.000000
2600		352.500000
2601		977.500000
2602		-457.500000
2603		532.500000
2604		-607.500000
2605		-1430.000000
2606		327.500000
2607		-252.500000
2608		27.500000
2609		380.000000
2610		-755.000000
2611		-522.500000
2612		-237.500000
2613		-990.000000
2614		-710.000000
2615		-185.000000
2616		370.000000
2617		232.500000
2618		640.000000
2619		-460.000000
2620		-792.500000
2621		1635.000000
2622		772.500000
2623		1385.000000
2624		-1765.000000
2625		1367.500000
2626		452.500000
2627		-680.000000
2628		1147.500000
2629		-835.000000
2630		187.500000
2631		265.000000
2632		857.500000
2633		177.500000
2634		-735.000000
2635		-1122.500000
2636		-1195.000000
2637		455.000000
2638		220.000000
2639		1935.000000
2640		190.000000
2641		-722.500000
2642		-835.000000
2643		940.000000
2644		-1805.000000
2645		205.000000
2646		280.000000
2647		537.500000
2648		1057.500000
2649		-272.500000
2650		20.000000
2651		-452.500000
2652		1030.000000
2653		-892.500000
2654		-1030.000000
2655		-757.500000
2656		-1132.500000
2657		1162.500000
2658		-560.000000
2659		202.500000
2660		1052.500000
2661		827.500000
2662		-730.000000
2663		392.500000
2664		127.500000
2665		-122.500000
2666		-715.000000
2667		722.500000
2668		-1245.000000
2669		-110.000000
2670		-147.500000
2671		210.000000
2672		300.000000
2673		97.500000
2674		-1165.000000
2675		-867.500000
2676		1330.000000
2677		-1080.000000
2678		-1945.000000
2679		1095.000000
2680		-1352.500000
2681		-1657.500000
2682		972.500000
2683		-405.000000
2684		-175.000000
2685		-382.500000
2686		1395.000000
2687		1110.000000
2688		-162.500000
2689		-862.500000
2690		-360.000000
2691		445.000000
2692		-590.000000
2693		217.500000
2694		-240.000000
2695		197.500000
2696		-375.000000
2697		345.000000
2698		252.500000
2699		1210.000000
2700		1072.500000
2701		-820.000000
2702		365.000000
2703		-520.000000
2704		-402.500000
2705		982.500000
2706		35.000000
2707		-735.000000
2708		257.500000
2709		-55.000000
2710		-445.000000
2711		-422.500000
2712		-785.000000
2713		-480.000000
2714		282.500000
2715		-1287.500000
2716		-877.500000
2717		720.000000
2718		1107.500000
2719		135.000000
2720		-1427.500000
2721		550.000000
2722		-2007.500000
2723		35.000000
2724		-575.000000
2725		-485.000000
2726		-575.000000
2727		22.500000
2728		1097.500000
2729		1312.500000
2730		-507.500000
2731		655.000000
2732		-252.500000
2733		-435.000000
2734		372.500000
2735		-1042.500000
2736		1810.000000
2737		-600.000000
2738		-342.500000
2739		442.500000
2740		115.000000
2741		-97.500000
2742		1372.500000
2743		-592.500000
2744		5.000000
2745		822.500000
2746		-1575.000000
2747		250.000000
2748		835.000000
2749		220.000000
2750		-1630.000000
2751		-395.000000
2752		1172.500000
2753		-60.000000
2754		230.000000
2755		-917.500000
2756		552.500000
2757		587.500000
2758		382.500000
2759		-510.000000
2760		465.000000
2761		797.500000
2762		1060.000000
2763		517.500000
2764		-820.000000
2765		627.500000
2766		-157.500000
2767		390.000000
2768		-1360.000000
2769		-245.000000
2770		-92.500000
2771		-907.500000
2772		345.000000
2773		365.000000
2774		-390.000000
2775		1122.500000
2776		1225.000000
2777		512.500000
2778		-727.500000
2779		1550.000000
2780		-557.500000
2781		-490.000000
2782		265.000000
2783		30.000000
2784		-450.000000
2785		1117.500000
2786		-32.500000
2787		257.500000
2788		-217.500000
2789		1165.000000
2790		-100.000000
2791		717.500000
2792		522.500000
2793		410.000000
2794		315.000000
2795		562.500000
2796		-237.500000
2797		57.500000
2798		570.000000
2799		405.000000
2800		-250.000000
2801		-1265.000000
2802		-980.000000
2803		830.000000
2804		567.500000
2805		-42.500000
2806		-1025.000000
2807		785.000000
2808		-405.000000
2809		-465.000000
2810		390.000000
2811		-1045.000000
2812		-342.500000
2813		37.500000
2814		-645.000000
2815		1685.000000
2816		27.500000
2817		950.000000
2818		-1132.500000
2819		800.000000
2820		870.000000
2821		792.500000
2822		-1265.000000
2823		952.500000
2824		-1127.500000
2825		567.500000
2826		-467.500000
2827		327.500000
2828		-415.000000
2829		507.500000
2830		1437.500000
2831		155.000000
2832		-715.000000
2833		-840.000000
2834		70.000000
2835		1405.000000
2836		1377.500000
2837		-527.500000
2838		627.500000
2839		-400.000000
2840		-730.000000
2841		55.000000
2842		-422.500000
2843		345.000000
2844		-1407.500000
2845		-170.000000
2846		985.000000
2847		-630.000000
2848		1220.000000
2849		-372.500000
2850		-982.500000
2851		25.000000
2852		757.500000
2853		-765.000000
2854		175.000000
2855		262.500000
2856		805.000000
2857		-1102.500000
2858		-535.000000
2859		-1225.000000
2860		-745.000000
2861		1332.500000
2862		40.000000
2863		680.000000
2864		1542.500000
2865		-470.000000
2866		50.000000
2867		255.000000
2868		1365.000000
2869		-335.000000
2870		787.500000
2871		-777.500000
2872		1025.000000
2873		1080.000000
2874		-500.000000
2875		-1297.500000
2876		1045.000000
2877		-45.000000
2878		-2217.500000
2879		607.500000
2880		-382.500000
2881		357.500000
2882		-1130.000000
2883		1470.000000
2884		415.000000
2885		420.000000
2886		-555.000000
2887		-200.000000
2888		-1112.500000
2889		102.500000
2890		442.500000
2891		-315.000000
2892		537.500000
2893		-887.500000
2894		-552.500000
2895		-7.500000
2896		167.500000
2897		1045.000000
2898		695.000000
2899		630.000000
2900		152.500000
2901		1312.500000
2902		950.000000
2903		57.500000
2904		292.500000
2905		180.000000
2906		-237.500000
2907		-437.500000
2908		90.000000
2909		262.500000
2910		-307.500000
2911		-335.000000
2912		225.000000
2913		-410.000000
2914		-1905.000000
2915		220.000000
2916		557.500000
2917		180.000000
2918		-22.500000
2919		465.000000
2920		672.500000
2921		-477.500000
2922		1947.500000
2923		-615.000000
2924		1067.500000
2925		170.000000
2926		1402.500000
2927		-1120.000000
2928		-1347.500000
2929		20.000000
2930		440.000000
2931		987.500000
2932		1125.000000
2933		220.000000
2934		785.000000
2935		-795.000000
2936		-402.500000
2937		-112.500000
2938		1262.500000
2939		-1090.000000
2940		470.000000
2941		492.500000
2942		22.500000
2943		280.000000
2944		-720.000000
2945		460.000000
2946		1230.000000
2947		-190.000000
2948		-1415.000000
2949		1017.500000
2950		610.000000
2951		-522.500000
2952		777.500000
2953		-885.000000
2954		827.500000
2955		652.500000
2956		1025.000000
2957		-627.500000
2958		195.000000
2959		-135.000000
2960		-800.000000
2961		-1015.000000
2962		-735.000000
2963		995.000000
2964		107.500000
2965		577.500000
2966		935.000000
2967		-362.500000
2968		-795.000000
2969		-330.000000
2970		352.500000
2971		-1247.500000
2972		-1510.000000
2973		-1005.000000
2974		747.500000
2975		860.000000
2976		-510.000000
2977		1750.000000
2978		1350.000000
2979		780.000000
2980		-480.000000
2981		775.000000
2982		-1290.000000
2983		-385.000000
2984		630.000000
2985		-1160.000000
2986		400.000000
2987		782.500000
2988		-45.000000
2989		127.500000
2990		-362.500000
2991		1117.500000
2992		-40.000000
2993		1227.500000
2994		-272.500000
2995		-250.000000
2996		150.000000
2997		-1940.000000
2998		1422.500000
2999		417.500000
3000		610.000000
3001		670.000000
3002		-725.000000
3003		-180.000000
3004		475.000000
3005		1065.000000
3006		332.500000
3007		-692.500000
3008		-685.000000
3009		-840.000000
3010		-340.000000
3011		52.500000
3012		-1197.500000
3013		-702.500000
3014		50.000000
3015		510.000000
3016		257.500000
3017		-220.000000
3018		-185.000000
3019		-265.000000
3020		1470.000000
3021		-317.500000
3022		-702.500000
3023		-105.000000
3024		-92.500000
3025		-610.000000
3026		397.500000
3027		-490.000000
3028		310.000000
3029		-622.500000
3030		-937.500000
3031		-1385.000000
3032		430.000000
3033		577.500000
3034		-830.000000
3035		787.500000
3036		790.000000
3037		-555.000000
3038		-630.000000
3039		315.000000
3040		667.500000
3041		-562.500000
3042		-890.000000
3043		-317.500000
3044		-830.000000
3045		632.500000
3046		-1087.500000
3047		-345.000000
3048		-1522.500000
3049		655.000000
3050		17.500000
3051		1962.500000
3052		437.500000
3053		-305.000000
3054		-1160.000000
3055		-2.500000
3056		-285.000000
3057		-747.500000
3058		142.500000
3059		-70.000000
3060		170.000000
3061		437.500000
3062		1182.500000
3063		1362.500000
3064		-262.500000
3065		-370.000000
3066		485.000000
3067		450.000000
3068		1157.500000
3069		-1462.500000
3070		452.500000
3071		-740.000000
3072		-1825.000000
3073		1405.000000
3074		890.000000
3075		-1677.500000
3076		-777.500000
3077		-307.500000
3078		-680.000000
3079		-297.500000
3080		-1507.500000
3081		-955.000000
3082		-832.500000
3083		-177.500000
3084		480.000000
3085		497.500000
3086		-1360.000000
3087		432.500000
3088		1095.000000
3089		-170.000000
3090		-692.500000
3091		1437.500000
3092		135.000000
3093		-840.000000
3094		-152.500000
3095		532.500000
3096		-137.500000
3097		430.000000
3098		1810.000000
3099		805.000000
3100		337.500000
3101		585.000000
3102		882.500000
3103		-827.500000
3104		1840.000000
3105		1140.000000
3106		-1277.500000
3107		-1247.500000
3108		200.000000
3109		385.000000
3110		-487.500000
3111		347.500000
3112		700.000000
3113		-860.000000
3114		642.500000
3115		457.500000
3116		1485.000000
3117		-717.500000
3118		1527.500000
3119		-182.500000
3120		-597.500000
3121		-1360.000000
3122		-1147.500000
3123		-667.500000
3124		-125.000000
3125		582.500000
3126		-1977.500000
3127		-897.500000
3128		-27.500000
3129		152.500000
3130		27.500000
3131		-1462.500000
3132		575.000000
3133		90.000000
3134		-230.000000
3135		-347.500000
3136		677.500000
3137		65.000000
3138		785.000000
3139		-1222.500000
3140		1292.500000
3141		557.500000
3142		1395.000000
3143		-100.000000
3144		900.000000
3145		1767.500000
3146		90.000000
3147		652.500000
3148		-907.500000
3149		85.000000
3150		627.500000
3151		402.500000
3152		-150.000000
3153		-345.000000
3154		202.500000
3155		107.500000
3156		1020.000000
3157		-202.500000
3158		52.500000
3159		447.500000
3160		-370.000000
3161		405.000000
3162		785.000000
3163		-20.000000
3164		217.500000
3165		-410.000000
3166		-415.000000
3167		835.000000
3168		177.500000
3169		-307.500000
3170		947.500000
3171		25.000000
3172		-37.500000
3173		-262.500000
3174		452.500000
3175		-1115.000000
3176		77.500000
3177		-497.500000
3178		-1012.500000
3179		362.500000
3180		-405.000000
3181		-567.500000
3182		-637.500000
3183		800.000000
3184		1167.500000
3185		-437.500000
3186		-1057.500000
3187		-380.000000
3188		1382.500000
3189		1565.000000
3190		1945.000000
3191		-207.500000
3192		-135.000000
3193		97.500000
3194		-705.000000
3195		362.500000
3196		902.500000
3197		-375.000000
3198		-45.000000
3199		10.000000
3200		782.500000
3201		1095.000000
3202		-362.500000
3203		415.000000
3204		-320.000000
3205		-17.500000
3206		-395.000000
3207		-670.000000
3208		155.000000
3209		970.000000
3210		1242.500000
3211		-15.000000
3212		740.000000
3213		740.000000
3214		-307.500000
3215		-425.000000
3216		1537.500000
3217		815.000000
3218		457.500000
3219		-682.500000
3220		-132.500000
3221		190.000000
3222		37.500000
3223		2040.000000
3224		280.000000
3225		560.000000
3226		110.000000
3227		1192.500000
3228		622.500000
3229		802.500000
3230		-162.500000
3231		597.500000
3232		-557.500000
3233		-90.000000
3234		815.000000
3235		-1497.500000
3236		412.500000
3237		-672.500000
3238		1277.500000
3239		270.000000
3240		-140.000000
3241		-315.000000
3242		837.500000
3243		-367.500000
3244		447.500000
3245		147.500000
3246		-42.500000
3247		462.500000
3248		1112.500000
3249		622.500000
3250		435.000000
3251		-425.000000
3252		-252.500000
3253		-670.000000
3254		-492.500000
3255		1352.500000
3256		105.000000
3257		12.500000
3258		852.500000
3259		-497.500000
3260		-652.500000
3261		130.000000
3262		1117.500000
3263		220.000000
3264		-1050.000000
3265		-95.000000
3266		87.500000
3267		967.500000
3268		-615.000000
3269		-1022.500000
3270		-557.500000
3271		762.500000
3272		325.000000
3273		210.000000
3274		-5.000000
3275		-970.000000
3276		-655.000000
3277		-352.500000
3278		150.000000
3279		555.000000
3280		-495.000000
3281		-650.000000
3282		-542.500000
3283		-520.000000
3284		-195.000000
3285		-285.000000
3286		-767.500000
3287		387.500000
3288		-1225.000000
3289		-87.500000
3290		1317.500000
3291		-1570.000000
3292		-1460.000000
3293		67.500000
3294		652.500000
3295		577.500000
3296		-10.000000
3297		640.000000
3298		-987.500000
3299		-272.500000
3300		627.500000
3301		165.000000
3302		-10.000000
3303		-35.000000
3304		272.500000
3305		247.500000
3306		190.000000
3307		-567.500000
3308		195.000000
3309		-972.500000
3310		-1217.500000
3311		1150.000000
3312		1242.500000
3313		497.500000
3314		-1137.500000
3315		160.000000
3316		212.500000
3317		-300.000000
3318		-325.000000
3319		1750.000000
3320		-810.000000
3321		-617.500000
3322		1237.500000
3323		707.500000
3324		332.500000
3325		55.000000
3326		-1267.500000
3327		210.000000
3328		-475.000000
3329		225.000000
3330		157.500000
3331		885.000000
3332		960.000000
3333		-1325.000000
3334		-217.500000
3335		12.500000
3336		-1667.500000
3337		380.000000
3338		-532.500000
3339		1270.000000
3340		-612.500000
3341		607.500000
3342		42.500000
3343		-732.500000
3344		500.000000
3345		1080.000000
3346		340.000000
3347		162.500000
3348		417.500000
3349		1680.000000
3350		855.000000
3351		250.000000
3352		962.500000
3353		-290.000000
3354		470.000000
3355		35.000000
3356		-392.500000
3357		417.500000
3358		727.500000
3359		-1410.000000
3360		-540.000000
3361		-1230.000000
3362		-1240.000000
3363		105.000000
3364		890.000000
3365		-162.500000
3366		-902.500000
3367		370.000000
3368		-1097.500000
3369		520.000000
3370		-1522.500000
3371		-1257.500000
3372		-910.000000
3373		1557.500000
3374		1587.500000
3375		375.000000
3376		302.500000
3377		1717.500000
3378		-770.000000
3379		-190.000000
3380		-855.000000
3381		-285.000000
3382		1095.000000
3383		-517.500000
3384		572.500000
3385		-565.000000
3386		515.000000
3387		-427.500000
3388		-630.000000
3389		-562.500000
3390		292.500000
3391		690.000000
3392		895.000000
3393		-72.500000
3394		10.000000
3395		-150.000000
3396		380.000000
3397		-1022.500000
3398		-142.500000
3399		-12.500000
3400		-580.000000
3401		-565.000000
3402		257.500000
3403		517.500000
3404		-1377.500000
3405		-342.500000
3406		587.500000
3407		107.500000
3408		1010.000000
3409		990.000000
3410		-370.000000
3411		72.500000
3412		370.000000
3413		512.500000
3414		-75.000000
3415		1582.500000
3416		657.500000
3417		525.000000
3418		257.500000
3419		222.500000
3420		392.500000
3421		-932.500000
3422		1710.000000
3423		77.500000
3424		-302.500000
3425		-217.500000
3426		-1642.500000
3427		507.500000
3428		-182.500000
3429		1542.500000
3430		1290.000000
3431		-32.500000
3432		-430.000000
3433		60.000000
3434		-442.500000
3435		532.500000
3436		-1095.000000
3437		1035.000000
3438		97.500000
3439		335.000000
3440		695.000000
3441		32.500000
3442		140.000000
3443		-1980.000000
3444		-652.500000
3445		-120.000000
3446		155.000000
3447		-92.500000
3448		-42.500000
3449		-1120.000000
3450		302.500000
3451		-295.000000
3452		505.000000
3453		-1260.000000
3454		535.000000
3455		-662.500000
3456		-1385.000000
3457		-947.500000
3458		-350.000000
3459		655.000000
3460		762.500000
3461		-1810.000000
3462		672.500000
3463		1045.000000
3464		-387.500000
3465		352.500000
3466		-1137.500000
3467		-1007.500000
3468		-735.000000
3469		387.500000
3470		-277.500000
3471		-1135.000000
3472		695.000000
3473		-870.000000
3474		-645.000000
3475		397.500000
3476		487.500000
3477		-775.000000
3478		-810.000000
3479		327.500000
3480		30.000000
3481		117.500000
3482		-772.500000
3483		322.500000
3484		-367.500000
3485		-1155.000000
3486		-832.500000
3487		850.000000
3488		-145.000000
3489		-107.500000
3490		-357.500000
3491		-160.000000
3492		-347.500000
3493		302.500000
3494		-1560.000000
3495		-90.000000
3496		-487.500000
3497		-1512.500000
3498		475.000000
3499		-122.500000
3500		-577.500000
3501		-1965.000000
3502		17.500000
3503		-430.000000
3504		637.500000
3505		1752.500000
3506		-592.500000
3507		172.500000
3508		202.500000
3509		317.500000
3510		260.000000
3511		222.500000
3512		580.000000
3513		-340.000000
3514		687.500000
3515		477.500000
3516		-607.500000
3517		372.500000
3518		95.000000
3519		340.000000
3520		100.000000
3521		1487.500000
3522		220.000000
3523		-55.000000
3524		-852.500000
3525		430.000000
3526		1212.500000
3527		-1045.000000
3528		680.000000
3529		-435.000000
3530		-417.500000
3531		-187.500000
3532		1812.500000
3533		365.000000
3534		1455.000000
3535		220.000000
3536		995.000000
3537		-107.500000
3538		760.000000
3539		-972.500000
3540		-90.000000
3541		-1072.500000
3542		-572.500000
3543		-5.000000
3544		1097.500000
3545		277.500000
3546		-275.000000
3547		805.000000
3548		-600.000000
3549		1147.500000
3550		-350.000000
3551		-545.000000
3552		50.000000
3553		-897.500000
3554		-270.000000
3555		-590.000000
3556		-455.000000
3557		-62.500000
3558		595.000000
3559		-840.000000
3560		890.000000
3561		867.500000
3562		-922.500000
3563		237.500000
3564		-1025.000000
3565		90.000000
3566		730.000000
3567		282.500000
3568		-712.500000
3569		240.000000
3570		880.000000
3571		-1080.000000
3572		900.000000
3573		-765.000000
3574		-275.000000
3575		770.000000
3576		550.000000
3577		347.500000
3578		530.000000
3579		-50.000000
3580		397.500000
3581		1070.000000
3582		-967.500000
3583		682.500000
3584		105.000000
3585		375.000000
3586		672.500000
3587		65.000000
3588		-407.500000
3589		-365.000000
3590		1195.000000
3591		-12.500000
3592		-1357.500000
3593		572.500000
3594		1020.000000
3595		-255.000000
3596		-1195.000000
3597		-107.500000
3598		-1265.000000
3599		-345.000000
3600		-980.000000
3601		92.500000
3602		30.000000
3603		-937.500000
3604		1022.500000
3605		-605.000000
3606		1135.000000
3607		-60.000000
3608		382.500000
3609		-982.500000
3610		1347.500000
3611		-1017.500000
3612		1342.500000
3613		55.000000
3614		2087.500000
3615		167.500000
3616		-520.000000
3617		-617.500000
3618		667.500000
3619		382.500000
3620		-407.500000
3621		382.500000
3622		400.000000
3623		725.000000
3624		842.500000
3625		760.000000
3626		127.500000
3627		-1832.500000
3628		687.500000
3629		192.500000
3630		252.500000
3631		-610.000000
3632		-112.500000
3633		602.500000
3634		-127.500000
3635		-427.500000
3636		687.500000
3637		147.500000
3638		360.000000
3639		-1455.000000
3640		12.500000
3641		-880.000000
3642		-967.500000
3643		600.000000
3644		-155.000000
3645		-602.500000
3646		-772.500000
3647		160.000000
3648		-552.500000
3649		-132.500000
3650		1152.500000
3651		-630.000000
3652		-12.500000
3653		1602.500000
3654		-1147.500000
3655		647.500000
3656		-795.000000
3657		-890.000000
3658		62.500000
3659		-355.000000
3660		-502.500000
3661		-170.000000
3662		-1632.500000
3663		1130.000000
3664		355.000000
3665		300.000000
3666		5.000000
3667		-1610.000000
3668		955.000000
3669		160.000000
3670		550.000000
3671		1492.500000
3672		302.500000
3673		297.500000
3674		1347.500000
3675		-50.000000
3676		255.000000
3677		290.000000
3678		-1142.500000
3679		325.000000
3680		-425.000000
3681		-1690.000000
3682		125.000000
3683		-697.500000
3684		497.500000
3685		1350.000000
3686		-732.500000
3687		132.500000
3688		512.500000
3689		-425.000000
3690		555.000000
3691		-655.000000
3692		-1337.500000
3693		-292.500000
3694		882.500000
3695		382.500000
3696		-455.000000
3697		-120.000000
3698		347.500000
3699		-350.000000
3700		-712.500000
3701		-922.500000
3702		272.500000
3703		1730.000000
3704		1405.000000
3705		-362.500000
3706		-995.000000
3707		122.500000
3708		-1202.500000
3709		-242.500000
3710		-1000.000000
3711		332.500000
3712		550.000000
3713		640.000000
3714		742.500000
3715		1375.000000
3716		-462.500000
3717		-205.000000
3718		1475.000000
3719		-300.000000
3720		-90.000000
3721		750.000000
3722		-622.500000
3723		1227.500000
3724		605.000000
3725		1282.500000
3726		-962.500000
3727		342.500000
3728		-1195.000000
3729		580.000000
3730		-1655.000000
3731		-520.000000
3732		217.500000
3733		717.500000
3734		727.500000
3735		-432.500000
3736		815.000000
3737		1897.500000
3738		-235.000000
3739		-595.000000
3740		995.000000
3741		160.000000
3742		65.000000
3743		-637.500000
3744		-780.000000
3745		95.000000
3746		-447.500000
3747		-512.500000
3748		-460.000000
3749		-107.500000
3750		-1155.000000
3751		-902.500000
3752		830.000000
3753		1215.000000
3754		-150.000000
3755		-1812.500000
3756		632.500000
3757		-365.000000
3758		350.000000
3759		625.000000
3760		-132.500000
3761		-772.500000
3762		-837.500000
3763		680.000000
3764		-1020.000000
3765		-757.500000
3766		-112.500000
3767		-365.000000
3768		-597.500000
3769		-577.500000
3770		192.500000
3771		-335.000000
3772		-1032.500000
3773		-275.000000
3774		-695.000000
3775		-20.000000
3776		350.000000
3777		-20.000000
3778		-25.000000
3779		240.000000
3780		-150.000000
3781		-1712.500000
3782		-327.500000
3783		767.500000
3784		372.500000
3785		152.500000
3786		502.500000
3787		657.500000
3788		1072.500000
3789		-137.500000
3790		32.500000
3791		760.000000
3792		-300.000000
3793		-1230.000000
3794		-290.000000
3795		795.000000
3796		-155.000000
3797		-342.500000
3798		-17.500000
3799		772.500000
3800		-1280.000000
3801		445.000000
3802		-582.500000
3803		-510.000000
3804		-70.000000
3805		-162.500000
3806		-77.500000
3807		-1132.500000
3808		-102.500000
3809		-532.500000
3810		-615.000000
3811		-1340.000000
3812		-550.000000
3813		360.000000
3814		-542.500000
3815		-400.000000
3816		-620.000000
3817		622.500000
3818		850.000000
3819		-480.000000
3820		-330.000000
3821		730.000000
3822		715.000000
3823		317.500000
3824		590.000000
3825		-652.500000
3826		1725.000000
3827		827.500000
3828		-137.500000
3829		-662.500000
3830		230.000000
3831		-707.500000
3832		790.000000
3833		-1362.500000
3834		-162.500000
3835		217.500000
3836		-587.500000
3837		-135.000000
3838		980.000000
3839		705.000000
3840		-427.500000
3841		780.000000
3842		-25.000000
3843		-622.500000
3844		-710.000000
3845		-490.000000
3846		562.500000
3847		335.000000
3848		1150.000000
3849		-365.000000
3850		320.000000
3851		-255.000000
3852		147.500000
3853		82.500000
3854		-87.500000
3855		1295.000000
3856		-722.500000
3857		-550.000000
3858		505.000000
3859		-107.500000
3860		717.500000
3861		1012.500000
3862		1092.500000
3863		-1152.500000
3864		332.500000
3865		-295.000000
3866		2532.500000
3867		587.500000
3868		-87.500000
3869		347.500000
3870		-295.000000
3871		-487.500000
3872		-142.500000
3873		-150.000000
3874		-742.500000
3875		-372.500000
3876		-37.500000
3877		-1112.500000
3878		-252.500000
3879		45.000000
3880		267.500000
3881		-300.000000
3882		322.500000
3883		280.000000
3884		-1307.500000
3885		1425.000000
3886		1200.000000
3887		552.500000
3888		-110.000000
3889		267.500000
3890		-110.000000
3891		595.000000
3892		30.000000
3893		200.000000
3894		-637.500000
3895		820.000000
3896		270.000000
3897		-210.000000
3898		1000.000000
3899		177.500000
3900		-1135.000000
3901		440.000000
3902		702.500000
3903		-1342.500000
3904		-1140.000000
3905		-112.500000
3906		150.000000
3907		-705.000000
3908		-682.500000
3909		1207.500000
3910		-967.500000
3911		-335.000000
3912		395.000000
3913		427.500000
3914		142.500000
3915		97.500000
3916		867.500000
3917		-922.500000
3918		1817.500000
3919		-1277.500000
3920		115.000000
3921		-512.500000
3922		-457.500000
3923		-882.500000
3924		-20.000000
3925		1012.500000
3926		1472.500000
3927		-295.000000
3928		1192.500000
3929		-47.500000
3930		-485.000000
3931		-1647.500000
3932		-260.000000
3933		1562.500000
3934		-290.000000
3935		140.000000
3936		307.500000
3937		-1197.500000
3938		157.500000
3939		440.000000
3940		297.500000
3941		-1185.000000
3942		-1090.000000
3943		-102.500000
3944		-730.000000
3945		995.000000
3946		-1300.000000
3947		-22.500000
3948		1077.500000
3949		-865.000000
3950		-625.000000
3951		-1492.500000
3952		-135.000000
3953		942.500000
3954		922.500000
3955		247.500000
3956		-767.500000
3957		270.000000
3958		747.500000
3959		102.500000
3960		1127.500000
3961		1265.000000
3962		-1062.500000
3963		140.000000
3964		457.500000
3965		727.500000
3966		5.000000
3967		62.500000
3968		-1040.000000
3969		115.000000
3970		-500.000000
3971		-1975.000000
3972		-112.500000
3973		705.000000
3974		-152.500000
3975		282.500000
3976		625.000000
3977		-1397.500000
3978		-272.500000
3979		1177.500000
3980		-145.000000
3981		202.500000
3982		572.500000
3983		890.000000
3984		-242.500000
3985		97.500000
3986		1297.500000
3987		977.500000
3988		-232.500000
3989		520.000000
3990		757.500000
3991		95.000000
3992		-1205.000000
3993		-167.500000
3994		715.000000
3995		507.500000
3996		265.000000
3997		0.000000
3998		112.500000
3999		630.000000
4000		942.500000
4001		-307.500000
4002		-690.000000
4003		-317.500000
4004		-397.500000
4005		15.000000
4006		-320.000000
4007		-190.000000
4008		490.000000
4009		-107.500000
4010		-672.500000
4011		-1015.000000
4012		705.000000
4013		-717.500000
4014		-1715.000000
4015		242.500000
4016		927.500000
4017		-380.000000
4018		-1362.500000
4019		1672.500000
4020		140.000000
4021		2092.500000
4022		-1202.500000
4023		-212.500000
4024		87.500000
4025		1720.000000
4026		-335.000000
4027		-625.000000
4028		-1152.500000
4029		-75.000000
4030		-730.000000
4031		852.500000
4032		-502.500000
4033		-1200.000000
4034		1092.500000
4035		852.500000
4036		-1432.500000
4037		-1055.000000
4038		-372.500000
4039		1082.500000
4040		1577.500000
4041		-807.500000
4042		-1420.000000
4043		-25.000000
4044		82.500000
4045		-1997.500000
4046		305.000000
4047		-192.500000
4048		-970.000000
4049		-602.500000
4050		25.000000
4051		-980.000000
4052		-1297.500000
4053		-40.000000
4054		310.000000
4055		1095.000000
4056		77.500000
4057		-347.500000
4058		372.500000
4059		0.000000
4060		-360.000000
4061		-407.500000
4062		-925.000000
4063		-662.500000
4064		-1222.500000
4065		1925.000000
4066		182.500000
4067		782.500000
4068		-57.500000
4069		-260.000000
4070		45.000000
4071		-102.500000
4072		177.500000
4073		-995.000000
4074		-547.500000
4075		1240.000000
4076		-1190.000000
4077		-137.500000
4078		-365.000000
4079		-150.000000
4080		-295.000000
4081		-827.500000
4082		65.000000
4083		57.500000
4084		927.500000
4085		1232.500000
4086		-887.500000
4087		-645.000000
4088		305.000000
4089		80.000000
4090		887.500000
4091		-435.000000
4092		155.000000
4093		180.000000
4094		-580.000000
4095		102.500000
4096		875.000000
4097		-445.000000
4098		-985.000000
4099		547.500000
4100		642.500000
4101		800.000000
4102		437.500000
4103		120.000000
4104		-527.500000
4105		1107.500000
4106		-622.500000
4107		760.000000
4108		712.500000
4109		-1227.500000
4110		1390.000000
4111		352.500000
4112		-945.000000
4113		197.500000
4114		1565.000000
4115		-167.500000
4116		-202.500000
4117		1207.500000
4118		780.000000
4119		-1852.500000
4120		-520.000000
4121		-267.500000
4122		-1302.500000
4123		232.500000
4124		-407.500000
4125		1320.000000
4126		-602.500000
4127		165.000000
4128		-822.500000
4129		1372.500000
4130		-950.000000
4131		-80.000000
4132		-1160.000000
4133		-855.000000
4134		-1727.500000
4135		-140.000000
4136		-482.500000
4137		2.500000
4138		-425.000000
4139		585.000000
4140		1165.000000
4141		-1512.500000
4142		40.000000
4143		-415.000000
4144		-787.500000
4145		-552.500000
4146		-1192.500000
4147		977.500000
4148		320.000000
4149		-1025.000000
4150		-1220.000000
4151		552.500000
4152		495.000000
4153		-1172.500000
4154		-1927.500000
4155		-67.500000
4156		-1087.500000
4157		295.000000
4158		90.000000
4159		285.000000
4160		-1442.500000
4161		-167.500000
4162		-722.500000
4163		-1057.500000
4164		447.500000
4165		905.000000
4166		-507.500000
4167		-1170.000000
4168		-107.500000
4169		502.500000
4170		-177.500000
4171		637.500000
4172		740.000000
4173		1270.000000
4174		-90.000000
4175		-510.000000
4176		1765.000000
4177		582.500000
4178		917.500000
4179		-297.500000
4180		-22.500000
4181		-850.000000
4182		-142.500000
4183		-942.500000
4184		-1095.000000
4185		220.000000
4186		-1010.000000
4187		850.000000
4188		-1615.000000
4189		-180.000000
4190		417.500000
4191		-285.000000
4192		1262.500000
4193		-415.000000
4194		-170.000000
4195		437.500000
4196		847.500000
4197		-632.500000
4198		-95.000000
4199		-465.000000
4200		-147.500000
4201		882.500000
4202		-445.000000
4203		275.000000
4204		-150.000000
4205		-1137.500000
4206		-207.500000
4207		620.000000
4208		-695.000000
4209		1435.000000
4210		-1377.500000
4211		1367.500000
4212		-287.500000
4213		-95.000000
4214		-27.500000
4215		-345.000000
4216		-447.500000
4217		792.500000
4218		607.500000
4219		1285.000000
4220		-215.000000
4221		-497.500000
4222		-505.000000
4223		-400.000000
4224		587.500000
4225		-187.500000
4226		-160.000000
4227		-97.500000
4228		-317.500000
4229		127.500000
4230		350.000000
4231		562.500000
4232		-782.500000
4233		-432.500000
4234		452.500000
4235		-755.000000
4236		20.000000
4237		-1190.000000
4238		325.000000
4239		305.000000
4240		330.000000
4241		740.000000
4242		-935.000000
4243		840.000000
4244		-400.000000
4245		-370.000000
4246		-632.500000
4247		520.000000
4248		-620.000000
4249		880.000000
4250		-1005.000000
4251		270.000000
4252		-525.000000
4253		817.500000
4254		-1162.500000
4255		-247.500000
4256		525.000000
4257		-750.000000
4258		-970.000000
4259		810.000000
4260		-1185.000000
4261		-860.000000
4262		995.000000
4263		105.000000
4264		-657.500000
4265		-630.000000
4266		875.000000
4267		210.000000
4268		230.000000
4269		1182.500000
4270		732.500000
4271		617.500000
4272		900.000000
4273		-327.500000
4274		-1135.000000
4275		-480.000000
4276		412.500000
4277		-1435.000000
4278		55.000000
4279		-72.500000
4280		-652.500000
4281		227.500000
4282		492.500000
4283		-642.500000
4284		-410.000000
4285		-1080.000000
4286		225.000000
4287		507.500000
4288		-247.500000
4289		-1220.000000
4290		-785.000000
4291		177.500000
4292		400.000000
4293		-337.500000
4294		35.000000
4295		-72.500000
4296		365.000000
4297		-72.500000
4298		-605.000000
4299		-442.500000
4300		145.000000
4301		-1440.000000
4302		830.000000
4303		-345.000000
4304		-497.500000
4305		497.500000
4306		-955.000000
4307		1272.500000
4308		-1055.000000
4309		985.000000
4310		-537.500000
4311		582.500000
4312		220.000000
4313		742.500000
4314		-65.000000
4315		-112.500000
4316		1625.000000
4317		40.000000
4318		480.000000
4319		677.500000
4320		390.000000
4321		-470.000000
4322		-390.000000
4323		432.500000
4324		7.500000
4325		642.500000
4326		402.500000
4327		677.500000
4328		32.500000
4329		985.000000
4330		-400.000000
4331		727.500000
4332		1375.000000
4333		647.500000
4334		1305.000000
4335		1027.500000
4336		37.500000
4337		-1120.000000
4338		505.000000
4339		307.500000
4340		-1142.500000
4341		1515.000000
4342		-1112.500000
4343		185.000000
4344		-390.000000
4345		-700.000000
4346		-557.500000
4347		-815.000000
4348		-170.000000
4349		617.500000
4350		-490.000000
4351		1417.500000
4352		1240.000000
4353		-35.000000
4354		300.000000
4355		380.000000
4356		392.500000
4357		865.000000
4358		42.500000
4359		-450.000000
4360		-1330.000000
4361		-2.500000
4362		457.500000
4363		415.000000
4364		1660.000000
4365		40.000000
4366		-622.500000
4367		-327.500000
4368		632.500000
4369		-620.000000
4370		-10.000000
4371		552.500000
4372		175.000000
4373		-407.500000
4374		-745.000000
4375		-222.500000
4376		560.000000
4377		1072.500000
4378		502.500000
4379		277.500000
4380		-1962.500000
4381		-990.000000
4382		410.000000
4383		-300.000000
4384		-337.500000
4385		540.000000
4386		617.500000
4387		1100.000000
4388		-260.000000
4389		-395.000000
4390		855.000000
4391		1747.500000
4392		-517.500000
4393		1120.000000
4394		225.000000
4395		-310.000000
4396		-807.500000
4397		152.500000
4398		-310.000000
4399		357.500000
4400		-507.500000
4401		42.500000
4402		1075.000000
4403		-547.500000
4404		-252.500000
4405		637.500000
4406		-72.500000
4407		972.500000
4408		85.000000
4409		180.000000
4410		270.000000
4411		-707.500000
4412		765.000000
4413		867.500000
4414		-1560.000000
4415		595.000000
4416		347.500000
4417		12.500000
4418		690.000000
4419		847.500000
4420		450.000000
4421		755.000000
4422		195.000000
4423		320.000000
4424		432.500000
4425		865.000000
4426		-805.000000
4427		-157.500000
4428		592.500000
4429		1452.500000
4430		382.500000
4431		-567.500000
4432		2180.000000
4433		405.000000
4434		310.000000
4435		1102.500000
4436		962.500000
4437		-910.000000
4438		372.500000
4439		430.000000
4440		-345.000000
4441		-382.500000
4442		362.500000
4443		-760.000000
4444		800.000000
4445		-165.000000
4446		647.500000
4447		-1637.500000
4448		-642.500000
4449		-867.500000
4450		20.000000
4451		427.500000
4452		-435.000000
4453		65.000000
4454		-1272.500000
4455		-15.000000
4456		1070.000000
4457		-210.000000
4458		-2085.000000
4459		-262.500000
4460		-840.000000
4461		-2017.500000
4462		867.500000
4463		-495.000000
4464		1582.500000
4465		442.500000
4466		-365.000000
4467		-1527.500000
4468		302.500000
4469		110.000000
4470		427.500000
4471		1960.000000
4472		-1042.500000
4473		505.000000
4474		-1182.500000
4475		1197.500000
4476		620.000000
4477		-27.500000
4478		1352.500000
4479		-512.500000
4480		-992.500000
4481		-502.500000
4482		802.500000
4483		1020.000000
4484		-542.500000
4485		-1055.000000
4486		-1867.500000
4487		850.000000
4488		-430.000000
4489		-897.500000
4490		530.000000
4491		300.000000
4492		-1435.000000
4493		227.500000
4494		-812.500000
4495		-240.000000
4496		-592.500000
4497		-237.500000
4498		102.500000
4499		-420.000000
4500		717.500000
4501		-662.500000
4502		-1337.500000
4503		667.500000
4504		580.000000
4505		650.000000
4506		542.500000
4507		780.000000
4508		-470.000000
4509		-302.500000
4510		745.000000
4511		-842.500000
4512		-257.500000
4513		-662.500000
4514		-132.500000
4515		-1230.000000
4516		185.000000
4517		-1115.000000
4518		-220.000000
4519		-1210.000000
4520		-1647.500000
4521		-127.500000
4522		-545.000000
4523		1167.500000
4524		220.000000
4525		77.500000
4526		-230.000000
4527		-950.000000
4528		65.000000
4529		1590.000000
4530		860.000000
4531		402.500000
4532		880.000000
4533		-1145.000000
4534		447.500000
4535		50.000000
4536		-880.000000
4537		-1162.500000
4538		537.500000
4539		-312.500000
4540		-1492.500000
4541		1025.000000
4542		-730.000000
4543		592.500000
4544		317.500000
4545		297.500000
4546		857.500000
4547		2.500000
4548		665.000000
4549		-605.000000
4550		837.500000
4551		470.000000
4552		230.000000
4553		-42.500000
4554		365.000000
4555		375.000000
4556		875.000000
4557		-652.500000
4558		-590.000000
4559		945.000000
4560		-240.000000
4561		655.000000
4562		-170.000000
4563		-1967.500000
4564		310.000000
4565		1060.000000
4566		1225.000000
4567		280.000000
4568		-1017.500000
4569		440.000000
4570		562.500000
4571		1280.000000
4572		542.500000
4573		-10.000000
4574		137.500000
4575		355.000000
4576		472.500000
4577		495.000000
4578		820.000000
4579		1090.000000
4580		587.500000
4581		507.500000
4582		290.000000
4583		-47.500000
4584		-570.000000
4585		-1050.000000
4586		-572.500000
4587		482.500000
4588		-685.000000
4589		-727.500000
4590		-795.000000
4591		-947.500000
4592		-287.500000
4593		245.000000
4594		-390.000000
4595		820.000000
4596		-942.500000
4597		440.000000
4598		672.500000
4599		207.500000
4600		-617.500000
4601		1372.500000
4602		650.000000
4603		-657.500000
4604		-900.000000
4605		1272.500000
4606		-1617.500000
4607		-1690.000000
4608		392.500000
4609		612.500000
4610		-832.500000
4611		-62.500000
4612		-1060.000000
4613		1617.500000
4614		-562.500000
4615		-800.000000
4616		717.500000
4617		520.000000
4618		-102.500000
4619		345.000000
4620		-985.000000
4621		327.500000
4622		-397.500000
4623		-410.000000
4624		1715.000000
4625		857.500000
4626		-62.500000
4627		-830.000000
4628		790.000000
4629		-335.000000
4630		-380.000000
4631		117.500000
4632		192.500000
4633		-540.000000
4634		-632.500000
4635		365.000000
4636		-667.500000
4637		-540.000000
4638		835.000000
4639		-365.000000
4640		-140.000000
4641		440.000000
4642		237.500000
4643		-1017.500000
4644		-1017.500000
4645		-80.000000
4646		527.500000
4647		-135.000000
4648		687.500000
4649		-132.500000
4650		-427.500000
4651		-1370.000000
4652		1200.000000
4653		-2202.500000
4654		-392.500000
4655		-10.000000
4656		-2260.000000
4657		1372.500000
4658		575.000000
4659		0.000000
4660		-300.000000
4661		1730.000000
4662		180.000000
4663		-805.000000
4664		945.000000
4665		-200.000000
4666		-120.000000
4667		407.500000
4668		1367.500000
4669		-1805.000000
4670		925.000000
4671		-115.000000
4672		-132.500000
4673		742.500000
4674		365.000000
4675		-32.500000
4676		320.000000
4677		-572.500000
4678		-315.000000
4679		-47.500000
4680		-252.500000
4681		32.500000
4682		-185.000000
4683		-747.500000
4684		1085.000000
4685		180.000000
4686		-1890.000000
4687		-1002.500000
4688		100.000000
4689		-665.000000
4690		370.000000
4691		-1315.000000
4692		367.500000
4693		-352.500000
4694		-417.500000
4695		147.500000
4696		-167.500000
4697		-772.500000
4698		-305.000000
4699		1670.000000
4700		-1295.000000
4701		-642.500000
4702		1110.000000
4703		-520.000000
4704		665.000000
4705		710.000000
4706		245.000000
4707		300.000000
4708		-585.000000
4709		305.000000
4710		-327.500000
4711		362.500000
4712		417.500000
4713		1935.000000
4714		-925.000000
4715		-595.000000
4716		412.500000
4717		-140.000000
4718		-1230.000000
4719		640.000000
4720		1460.000000
4721		480.000000
4722		-282.500000
4723		297.500000
4724		-95.000000
4725		975.000000
4726		1257.500000
4727		-812.500000
4728		290.000000
4729		1942.500000
4730		145.000000
4731		-247.500000
4732		635.000000
4733		-460.000000
4734		557.500000
4735		-190.000000
4736		320.000000
4737		340.000000
4738		312.500000
4739		-867.500000
4740		-595.000000
4741		-862.500000
4742		945.000000
4743		-1217.500000
4744		582.500000
4745		570.000000
4746		-52.500000
4747		-865.000000
4748		-195.000000
4749		1722.500000
4750		450.000000
4751		520.000000
4752		542.500000
4753		1037.500000
4754		-397.500000
4755		50.000000
4756		-535.000000
4757		165.000000
4758		-850.000000
4759		-1310.000000
4760		-1080.000000
4761		-107.500000
4762		-140.000000
4763		2050.000000
4764		247.500000
4765		-50.000000
4766		507.500000
4767		-140.000000
4768		-490.000000
4769		-997.500000
4770		1070.000000
4771		-872.500000
4772		-885.000000
4773		-787.500000
4774		-752.500000
4775		-272.500000
4776		732.500000
4777		-275.000000
4778		-262.500000
4779		150.000000
4780		-410.000000
4781		277.500000
4782		-187.500000
4783		480.000000
4784		-72.500000
4785		-32.500000
4786		2.500000
4787		-765.000000
4788		267.500000
4789		392.500000
4790		-1067.500000
4791		610.000000
4792		-120.000000
4793		-427.500000
4794		1047.500000
4795		437.500000
4796		-1650.000000
4797		1577.500000
4798		-305.000000
4799		472.500000
4800		-307.500000
4801		1330.000000
4802		160.000000
4803		-372.500000
4804		570.000000
4805		425.000000
4806		-192.500000
4807		1640.000000
4808		247.500000
4809		255.000000
4810		760.000000
4811		1407.500000
4812		-920.000000
4813		807.500000
4814		-447.500000
4815		912.500000
4816		-130.000000
4817		-297.500000
4818		-127.500000
4819		70.000000
4820		1492.500000
4821		72.500000
4822		-337.500000
4823		-1292.500000
4824		-120.000000
4825		-732.500000
4826		-430.000000
4827		197.500000
4828		302.500000
4829		1007.500000
4830		755.000000
4831		240.000000
4832		-815.000000
4833		-1347.500000
4834		-497.500000
4835		127.500000
4836		-845.000000
4837		795.000000
4838		472.500000
4839		-472.500000
4840		-1397.500000
4841		-610.000000
4842		170.000000
4843		862.500000
4844		-482.500000
4845		-115.000000
4846		760.000000
4847		-847.500000
4848		-460.000000
4849		-637.500000
4850		-492.500000
4851		-1377.500000
4852		1525.000000
4853		355.000000
4854		882.500000
4855		1347.500000
4856		32.500000
4857		-1035.000000
4858		-272.500000
4859		70.000000
4860		-387.500000
4861		-312.500000
4862		-90.000000
4863		-10.000000
4864		-110.000000
4865		-1280.000000
4866		-1282.500000
4867		-1512.500000
4868		-1757.500000
4869		-57.500000
4870		465.000000
4871		-265.000000
4872		-790.000000
4873		1002.500000
4874		-120.000000
4875		-150.000000
4876		330.000000
4877		597.500000
4878		-1090.000000
4879		1602.500000
4880		-1197.500000
4881		-55.000000
4882		-697.500000
4883		-502.500000
4884		677.500000
4885		385.000000
4886		-35.000000
4887		270.000000
4888		217.500000
4889		-385.000000
4890		-580.000000
4891		212.500000
4892		-752.500000
4893		490.000000
4894		-815.000000
4895		-1322.500000
4896		-367.500000
4897		710.000000
4898		360.000000
4899		-837.500000
4900		-217.500000
4901		-100.000000
4902		-270.000000
4903		1297.500000
4904		-547.500000
4905		337.500000
4906		-180.000000
4907		267.500000
4908		250.000000
4909		-1232.500000
4910		515.000000
4911		405.000000
4912		420.000000
4913		655.000000
4914		-422.500000
4915		-77.500000
4916		60.000000
4917		882.500000
4918		-237.500000
4919		825.000000
4920		457.500000
4921		-1235.000000
4922		30.000000
4923		1280.000000
4924		620.000000
4925		-130.000000
4926		-1910.000000
4927		512.500000
4928		355.000000
4929		-615.000000
4930		-432.500000
4931		-1252.500000
4932		-1075.000000
4933		1032.500000
4934		-1637.500000
4935		1467.500000
4936		-45.000000
4937		1345.000000
4938		-1065.000000
4939		-1987.500000
4940		-250.000000
4941		1740.000000
4942		530.000000
4943		172.500000
4944		1355.000000
4945		-172.500000
4946		-1617.500000
4947		580.000000
4948		-415.000000
4949		450.000000
4950		292.500000
4951		757.500000
4952		347.500000
4953		625.000000
4954		90.000000
4955		337.500000
4956		-815.000000
4957		665.000000
4958		-1590.000000
4959		775.000000
4960		1265.000000
4961		665.000000
4962		-920.000000
4963		697.500000
4964		-407.500000
4965		797.500000
4966		1775.000000
4967		225.000000
4968		710.000000
4969		170.000000
4970		-1762.500000
4971		-1260.000000
4972		-527.500000
4973		-892.500000
4974		-732.500000
4975		-1122.500000
4976		-60.000000
4977		-415.000000
4978		72.500000
4979		-987.500000
4980		-355.000000
4981		220.000000
4982		-2540.000000
4983		-1272.500000
4984		1017.500000
4985		-1112.500000
4986		1275.000000
4987		660.000000
4988		-560.000000
4989		-742.500000
4990		-512.500000
4991		10.000000
4992		-390.000000
4993		-222.500000
4994		-215.000000
4995		-517.500000
4996		1232.500000
4997		-1915.000000
4998		-70.000000
4999		422.500000
5000		-1107.500000
5001		-797.500000
5002		-1207.500000
5003		-1727.500000
5004		567.500000
5005		912.500000
5006		-20.000000
5007		-1070.000000
5008		920.000000
5009		77.500000
5010		232.500000
5011		1210.000000
5012		-380.000000
5013		-820.000000
5014		-107.500000
5015		747.500000
5016		-532.500000
5017		-1310.000000
5018		185.000000
5019		435.000000
5020		-747.500000
5021		347.500000
5022		297.500000
5023		405.000000
5024		352.500000
5025		-1950.000000
5026		787.500000
5027		-180.000000
5028		42.500000
5029		-1412.500000
5030		915.000000
5031		57.500000
5032		-1615.000000
5033		1200.000000
5034		-200.000000
5035		-260.000000
5036		437.500000
5037		-747.500000
5038		-307.500000
5039		2.500000
5040		-172.500000
5041		1542.500000
5042		-670.000000
5043		1335.000000
5044		885.000000
5045		-235.000000
5046		262.500000
5047		17.500000
5048		-1020.000000
5049		-502.500000
5050		282.500000
5051		-1020.000000
5052		-220.000000
5053		-237.500000
5054		547.500000
5055		260.000000
5056		1120.000000
5057		315.000000
5058		-22.500000
5059		-25.000000
5060		-600.000000
5061		420.000000
5062		-1022.500000
5063		290.000000
5064		145.000000
5065		-872.500000
5066		270.000000
5067		-370.000000
5068		-655.000000
5069		800.000000
5070		-212.500000
5071		352.500000
5072		-280.000000
5073		-1810.000000
5074		-1450.000000
5075		-1372.500000
5076		-192.500000
5077		-442.500000
5078		-1490.000000
5079		667.500000
5080		2215.000000
5081		525.000000
5082		2182.500000
5083		60.000000
5084		110.000000
5085		-142.500000
5086		-45.000000
5087		345.000000
5088		787.500000
5089		-945.000000
5090		517.500000
5091		-1392.500000
5092		332.500000
5093		1300.000000
5094		472.500000
5095		405.000000
5096		-1135.000000
5097		-92.500000
5098		1062.500000
5099		-952.500000
5100		562.500000
5101		-652.500000
5102		720.000000
5103		-1065.000000
5104		-5.000000
5105		-582.500000
5106		-830.000000
5107		485.000000
5108		-125.000000
5109		-1027.500000
5110		1560.000000
5111		510.000000
5112		77.500000
5113		-640.000000
5114		-442.500000
5115		1585.000000
5116		107.500000
5117		1342.500000
5118		760.000000
5119		675.000000
5120		155.000000
5121		690.000000
5122		-720.000000
5123		512.500000
5124		-77.500000
5125		-335.000000
5126		-52.500000
5127		495.000000
5128		100.000000
5129		685.000000
5130		417.500000
5131		-957.500000
5132		-1040.000000
5133		-792.500000
5134		-517.500000
5135		-157.500000
5136		-1412.500000
5137		357.500000
5138		1252.500000
5139		-692.500000
5140		-567.500000
5141		405.000000
5142		1565.000000
5143		117.500000
5144		-825.000000
5145		1560.000000
5146		1260.000000
5147		-985.000000
5148		-215.000000
5149		-640.000000
5150		285.000000
5151		-362.500000
5152		-375.000000
5153		-150.000000
5154		1267.500000
5155		90.000000
5156		-1042.500000
5157		1450.000000
5158		-202.500000
5159		267.500000
5160		62.500000
5161		-562.500000
5162		765.000000
5163		150.000000
5164		-337.500000
5165		-1195.000000
5166		487.500000
5167		1385.000000
5168		-1487.500000
5169		1440.000000
5170		880.000000
5171		597.500000
5172		-872.500000
5173		-192.500000
5174		1182.500000
5175		257.500000
5176		285.000000
5177		-75.000000
5178		-200.000000
5179		70.000000
5180		-30.000000
5181		-905.000000
5182		1470.000000
5183		-100.000000
5184		-782.500000
5185		595.000000
5186		-537.500000
5187		-20.000000
5188		-835.000000
5189		995.000000
5190		277.500000
5191		-17.500000
5192		-1777.500000
5193		252.500000
5194		-350.000000
5195		250.000000
5196		-180.000000
5197		-285.000000
5198		-830.000000
5199		-145.000000
5200		447.500000
5201		-457.500000
5202		-405.000000
5203		1122.500000
5204		150.000000
5205		440.000000
5206		-355.000000
5207		1762.500000
5208		-365.000000
5209		-507.500000
5210		-320.000000
5211		-85.000000
5212		-220.000000
5213		-95.000000
5214		-975.000000
5215		-950.000000
5216		330.000000
5217		330.000000
5218		1022.500000
5219		-40.000000
5220		262.500000
5221		295.000000
5222		1095.000000
5223		552.500000
5224		-170.000000
5225		-900.000000
5226		-1232.500000
5227		837.500000
5228		492.500000
5229		1557.500000
5230		722.500000
5231		-55.000000
5232		-1412.500000
5233		787.500000
5234		-222.500000
5235		-802.500000
5236		-97.500000
5237		90.000000
5238		1795.000000
5239		160.000000
5240		677.500000
5241		-755.000000
5242		880.000000
5243		305.000000
5244		845.000000
5245		-97.500000
5246		292.500000
5247		-565.000000
5248		-700.000000
5249		590.000000
5250		1177.500000
5251		1185.000000
5252		200.000000
5253		210.000000
5254		65.000000
5255		827.500000
5256		725.000000
5257		102.500000
5258		1030.000000
5259		-587.500000
5260		805.000000
5261		270.000000
5262		-302.500000
5263		1177.500000
5264		-1220.000000
5265		1042.500000
5266		5.000000
5267		627.500000
5268		-130.000000
5269		342.500000
5270		655.000000
5271		-125.000000
5272		-1095.000000
5273		57.500000
5274		1345.000000
5275		1327.500000
5276		140.000000
5277		-1480.000000
5278		-82.500000
5279		-527.500000
5280		600.000000
5281		932.500000
5282		2.500000
5283		-247.500000
5284		1847.500000
5285		-1792.500000
5286		-1040.000000
5287		-1015.000000
5288		-612.500000
5289		-282.500000
5290		-65.000000
5291		1987.500000
5292		-465.000000
5293		432.500000
5294		355.000000
5295		-550.000000
5296		262.500000
5297		-47.500000
5298		-657.500000
5299		-387.500000
5300		-875.000000
5301		-785.000000
5302		1102.500000
5303		-692.500000
5304		-1245.000000
5305		197.500000
5306		-1005.000000
5307		-1372.500000
5308		125.000000
5309		-917.500000
5310		-502.500000
5311		237.500000
5312		-485.000000
5313		510.000000
5314		1005.000000
5315		67.500000
5316		512.500000
5317		-7.500000
5318		1025.000000
5319		-1292.500000
5320		797.500000
5321		1005.000000
5322		-542.500000
5323		-105.000000
5324		940.000000
5325		-630.000000
5326		387.500000
5327		-685.000000
5328		120.000000
5329		-297.500000
5330		850.000000
5331		-230.000000
5332		-17.500000
5333		-195.000000
5334		-1337.500000
5335		-1202.500000
5336		-537.500000
5337		-537.500000
5338		372.500000
5339		200.000000
5340		292.500000
5341		-132.500000
5342		-527.500000
5343		1815.000000
5344		-557.500000
5345		830.000000
5346		-507.500000
5347		-552.500000
5348		-1485.000000
5349		397.500000
5350		-110.000000
5351		-742.500000
5352		-317.500000
5353		-1122.500000
5354		-580.000000
5355		-1267.500000
5356		295.000000
5357		87.500000
5358		7.500000
5359		1115.000000
5360		707.500000
5361		-457.500000
5362		-340.000000
5363		1912.500000
5364		1137.500000
5365		377.500000
5366		-592.500000
5367		-55.000000
5368		902.500000
5369		435.000000
5370		-1210.000000
5371		-1140.000000
5372		972.500000
5373		-1407.500000
5374		350.000000
5375		-2197.500000
5376		-925.000000
5377		-442.500000
5378		200.000000
5379		465.000000
5380		657.500000
5381		747.500000
5382		517.500000
5383		2.500000
5384		-1300.000000
5385		315.000000
5386		-37.500000
5387		-1592.500000
5388		-455.000000
5389		-645.000000
5390		1582.500000
5391		-225.000000
5392		-407.500000
5393		-362.500000
5394		582.500000
5395		920.000000
5396		412.500000
5397		342.500000
5398		-120.000000
5399		247.500000
5400		-1022.500000
5401		-745.000000
5402		517.500000
5403		-910.000000
5404		832.500000
5405		-215.000000
5406		722.500000
5407		-825.000000
5408		587.500000
5409		357.500000
5410		-702.500000
5411		-1135.000000
5412		90.000000
5413		-1427.500000
5414		1277.500000
5415		517.500000
5416		327.500000
5417		290.000000
5418		-550.000000
5419		995.000000
5420		215.000000
5421		587.500000
5422		-1067.500000
5423		-1107.500000
5424		792.500000
5425		-932.500000
5426		-245.000000
5427		737.500000
5428		-567.500000
5429		1237.500000
5430		-1040.000000
5431		-1125.000000
5432		-217.500000
5433		-12.500000
5434		105.000000
5435		-720.000000
5436		-1650.000000
5437		-12.500000
5438		-40.000000
5439		322.500000
5440		407.500000
5441		172.500000
5442		537.500000
5443		-85.000000
5444		-827.500000
5445		37.500000
5446		755.000000
5447		-710.000000
5448		387.500000
5449		470.000000
5450		-1047.500000
5451		-1587.500000
5452		30.000000
5453		630.000000
5454		-555.000000
5455		1100.000000
5456		-1045.000000
5457		632.500000
5458		2130.000000
5459		820.000000
5460		-637.500000
5461		182.500000
5462		-367.500000
5463		890.000000
5464		-335.000000
5465		940.000000
5466		-1010.000000
5467		295.000000
5468		-265.000000
5469		-830.000000
5470		-617.500000
5471		1245.000000
5472		497.500000
5473		-510.000000
5474		-1205.000000
5475		-505.000000
5476		925.000000
5477		-25.000000
5478		-1317.500000
5479		-805.000000
5480		137.500000
5481		-652.500000
5482		162.500000
5483		-647.500000
5484		607.500000
5485		-317.500000
5486		1292.500000
5487		-475.000000
5488		380.000000
5489		907.500000
5490		-75.000000
5491		-1062.500000
5492		1775.000000
5493		302.500000
5494		-430.000000
5495		-535.000000
5496		872.500000
5497		-945.000000
5498		47.500000
5499		435.000000
5500		-17.500000
5501		-850.000000
5502		-927.500000
5503		-540.000000
5504		622.500000
5505		-295.000000
5506		-462.500000
5507		-467.500000
5508		265.000000
5509		470.000000
5510		-345.000000
5511		-45.000000
5512		-95.000000
5513		1140.000000
5514		-12.500000
5515		1107.500000
5516		-642.500000
5517		-302.500000
5518		810.000000
5519		-442.500000
5520		-812.500000
5521		287.500000
5522		-1080.000000
5523		-382.500000
5524		-1145.000000
5525		-1690.000000
5526		-457.500000
5527		-255.000000
5528		-1132.500000
5529		595.000000
5530		902.500000
5531		-75.000000
5532		-1445.000000
5533		-225.000000
5534		-1247.500000
5535		-470.000000
5536		-57.500000
5537		-565.000000
5538		-977.500000
5539		797.500000
5540		1232.500000
5541		487.500000
5542		192.500000
5543		-660.000000
5544		237.500000
5545		717.500000
5546		-597.500000
5547		757.500000
5548		190.000000
5549		-650.000000
5550		480.000000
5551		-747.500000
5552		162.500000
5553		1155.000000
5554		375.000000
5555		-12.500000
5556		-832.500000
5557		-12.500000
5558		707.500000
5559		-742.500000
5560		-320.000000
5561		1830.000000
5562		1617.500000
5563		267.500000
5564		-470.000000
5565		1530.000000
5566		-567.500000
5567		-367.500000
5568		-1725.000000
5569		-410.000000
5570		452.500000
5571		-1857.500000
5572		7.500000
5573		-85.000000
5574		680.000000
5575		-727.500000
5576		-292.500000
5577		180.000000
5578		-712.500000
5579		150.000000
5580		-157.500000
5581		1302.500000
5582		1715.000000
5583		-1010.000000
5584		470.000000
5585		132.500000
5586		300.000000
5587		287.500000
5588		177.500000
5589		-277.500000
5590		980.000000
5591		-7.500000
5592		-295.000000
5593		832.500000
5594		-1100.000000
5595		-1087.500000
5596		1535.000000
5597		-435.000000
5598		-1175.000000
5599		277.500000
5600		402.500000
5601		242.500000
5602		-850.000000
5603		-982.500000
5604		-1132.500000
5605		67.500000
5606		-460.000000
5607		642.500000
5608		840.000000
5609		-1632.500000
5610		-835.000000
5611		242.500000
5612		-747.500000
5613		1252.500000
5614		692.500000
5615		947.500000
5616		87.500000
5617		-272.500000
5618		1150.000000
5619		842.500000
5620		575.000000
5621		187.500000
5622		490.000000
5623		417.500000
5624		905.000000
5625		-1480.000000
5626		867.500000
5627		1907.500000
5628		1070.000000
5629		-2047.500000
5630		-1100.000000
5631		955.000000
5632		820.000000
5633		1005.000000
5634		-1140.000000
5635		695.000000
5636		-5.000000
5637		-300.000000
5638		5.000000
5639		-152.500000
5640		-435.000000
5641		-640.000000
5642		-320.000000
5643		555.000000
5644		-460.000000
5645		550.000000
5646		5.000000
5647		-270.000000
5648		260.000000
5649		337.500000
5650		-1020.000000
5651		-427.500000
5652		362.500000
5653		-1205.000000
5654		-2.500000
5655		-1257.500000
5656		-1510.000000
5657		-612.500000
5658		-902.500000
5659		1875.000000
5660		-275.000000
5661		515.000000
5662		-567.500000
5663		875.000000
5664		-955.000000
5665		-637.500000
5666		-455.000000
5667		525.000000
5668		815.000000
5669		47.500000
5670		692.500000
5671		990.000000
5672		-290.000000
5673		-780.000000
5674		102.500000
5675		1285.000000
5676		-335.000000
5677		-340.000000
5678		-840.000000
5679		1092.500000
5680		-130.000000
5681		1057.500000
5682		-335.000000
5683		-480.000000
5684		210.000000
5685		-85.000000
5686		-557.500000
5687		-422.500000
5688		-150.000000
5689		-180.000000
5690		-1495.000000
5691		-172.500000
5692		370.000000
5693		-1295.000000
5694		-422.500000
5695		-910.000000
5696		-1310.000000
5697		85.000000
5698		-45.000000
5699		1237.500000
5700		450.000000
5701		1240.000000
5702		-330.000000
5703		67.500000
5704		-267.500000
5705		-15.000000
5706		-422.500000
5707		-610.000000
5708		-407.500000
5709		602.500000
5710		857.500000
5711		505.000000
5712		-452.500000
5713		-102.500000
5714		-910.000000
5715		2.500000
5716		105.000000
5717		-1785.000000
5718		162.500000
5719		232.500000
5720		2045.000000
5721		997.500000
5722		645.000000
5723		-7.500000
5724		-505.000000
5725		-1125.000000
5726		-790.000000
5727		57.500000
5728		410.000000
5729		1505.000000
5730		-330.000000
5731		180.000000
5732		-37.500000
5733		1367.500000
5734		-1022.500000
5735		-700.000000
5736		617.500000
5737		-285.000000
5738		7.500000
5739		1155.000000
5740		-72.500000
5741		352.500000
5742		-552.500000
5743		-790.000000
5744		-500.000000
5745		-200.000000
5746		970.000000
5747		300.000000
5748		-265.000000
5749		-317.500000
5750		805.000000
5751		-265.000000
5752		615.000000
5753		-567.500000
5754		-765.000000
5755		972.500000
5756		15.000000
5757		-332.500000
5758		715.000000
5759		910.000000
5760		12.500000
5761		317.500000
5762		-117.500000
5763		1195.000000
5764		1005.000000
5765		-435.000000
5766		1942.500000
5767		-2112.500000
5768		-262.500000
5769		-32.500000
5770		545.000000
5771		-845.000000
5772		560.000000
5773		260.000000
5774		22.500000
5775		1412.500000
5776		-1065.000000
5777		1467.500000
5778		200.000000
5779		-662.500000
5780		-37.500000
5781		60.000000
5782		-1295.000000
5783		867.500000
5784		1117.500000
5785		1110.000000
5786		-175.000000
5787		1670.000000
5788		590.000000
5789		-860.000000
5790		-1700.000000
5791		-547.500000
5792		-552.500000
5793		-775.000000
5794		217.500000
5795		462.500000
5796		987.500000
5797		-995.000000
5798		-915.000000
5799		385.000000
5800		255.000000
5801		1120.000000
5802		-842.500000
5803		17.500000
5804		-372.500000
5805		1742.500000
5806		-345.000000
5807		-42.500000
5808		-485.000000
5809		962.500000
5810		117.500000
5811		1045.000000
5812		-870.000000
5813		-452.500000
5814		1190.000000
5815		527.500000
5816		597.500000
5817		460.000000
5818		-137.500000
5819		-127.500000
5820		-525.000000
5821		-1120.000000
5822		-842.500000
5823		1865.000000
5824		-565.000000
5825		372.500000
5826		5.000000
5827		-395.000000
5828		-692.500000
5829		577.500000
5830		-1322.500000
5831		842.500000
5832		642.500000
5833		-1525.000000
5834		1602.500000
5835		-422.500000
5836		650.000000
5837		-770.000000
5838		-555.000000
5839		-900.000000
5840		-832.500000
5841		487.500000
5842		505.000000
5843		922.500000
5844		-127.500000
5845		-560.000000
5846		1477.500000
5847		117.500000
5848		-660.000000
5849		820.000000
5850		275.000000
5851		1430.000000
5852		395.000000
5853		370.000000
5854		-1112.500000
5855		-590.000000
5856		-245.000000
5857		-522.500000
5858		-1707.500000
5859		-357.500000
5860		-1707.500000
5861		-692.500000
5862		-10.000000
5863		-255.000000
5864		-255.000000
5865		-290.000000
5866		-1485.000000
5867		-437.500000
5868		-1707.500000
5869		-1192.500000
5870		750.000000
5871		1982.500000
5872		75.000000
5873		-1212.500000
5874		-770.000000
5875		-495.000000
5876		482.500000
5877		127.500000
5878		-2.500000
5879		695.000000
5880		-2072.500000
5881		-662.500000
5882		1080.000000
5883		1345.000000
5884		-900.000000
5885		-1587.500000
5886		-117.500000
5887		-1330.000000
5888		-482.500000
5889		980.000000
5890		775.000000
5891		-1140.000000
5892		642.500000
5893		-1685.000000
5894		1102.500000
5895		432.500000
5896		480.000000
5897		-910.000000
5898		22.500000
5899		-37.500000
5900		852.500000
5901		-1070.000000
5902		1797.500000
5903		-10.000000
5904		200.000000
5905		20.000000
5906		405.000000
5907		-20.000000
5908		302.500000
5909		-1012.500000
5910		1060.000000
5911		-1127.500000
5912		-770.000000
5913		-745.000000
5914		-680.000000
5915		-970.000000
5916		-525.000000
5917		-840.000000
5918		297.500000
5919		655.000000
5920		-545.000000
5921		5.000000
5922		562.500000
5923		-430.000000
5924		460.000000
5925		-1000.000000
5926		-610.000000
5927		-692.500000
5928		-120.000000
5929		-345.000000
5930		-995.000000
5931		402.500000
5932		-307.500000
5933		-592.500000
5934		667.500000
5935		-397.500000
5936		-365.000000
5937		-330.000000
5938		-612.500000
5939		712.500000
5940		867.500000
5941		1060.000000
5942		-1455.000000
5943		-600.000000
5944		-167.500000
5945		1610.000000
5946		595.000000
5947		247.500000
5948		-180.000000
5949		222.500000
5950		-430.000000
5951		497.500000
5952		47.500000
5953		-40.000000
5954		75.000000
5955		585.000000
5956		415.000000
5957		305.000000
5958		-1262.500000
5959		315.000000
5960		1022.500000
5961		-270.000000
5962		-420.000000
5963		-490.000000
5964		-230.000000
5965		807.500000
5966		-502.500000
5967		-242.500000
5968		405.000000
5969		637.500000
5970		35.000000
5971		1160.000000
5972		525.000000
5973		352.500000
5974		-822.500000
5975		-160.000000
5976		-435.000000
5977		830.000000
5978		-810.000000
5979		-1060.000000
5980		-1415.000000
5981		-862.500000
5982		-172.500000
5983		-797.500000
5984		1307.500000
5985		-230.000000
5986		52.500000
5987		290.000000
5988		842.500000
5989		-1287.500000
5990		437.500000
5991		-412.500000
5992		-845.000000
5993		-512.500000
5994		152.500000
5995		1725.000000
5996		1030.000000
5997		-427.500000
5998		-190.000000
5999		662.500000
6000		-1270.000000
6001		1057.500000
6002		77.500000
6003		640.000000
6004		-692.500000
6005		-1385.000000
6006		340.000000
6007		930.000000
6008		545.000000
6009		807.500000
6010		-1147.500000
6011		-1377.500000
6012		-347.500000
6013		-1050.000000
6014		-1212.500000
6015		15.000000
6016		207.500000
6017		-102.500000
6018		-350.000000
6019		370.000000
6020		-360.000000
6021		772.500000
6022		-102.500000
6023		-75.000000
6024		-232.500000
6025		762.500000
6026		640.000000
6027		-230.000000
6028		-262.500000
6029		-20.000000
6030		-792.500000
6031		1170.000000
6032		325.000000
6033		-1090.000000
6034		-485.000000
6035		1192.500000
6036		615.000000
6037		240.000000
6038		1025.000000
6039		-1775.000000
6040		-420.000000
6041		-520.000000
6042		415.000000
6043		-315.000000
6044		762.500000
6045		-325.000000
6046		1087.500000
6047		-472.500000
6048		185.000000
6049		-1845.000000
6050		-630.000000
6051		-892.500000
6052		-297.500000
6053		-315.000000
6054		0.000000
6055		-280.000000
6056		-495.000000
6057		-482.500000
6058		245.000000
6059		-470.000000
6060		197.500000
6061		-987.500000
6062		-1732.500000
6063		90.000000
6064		42.500000
6065		-375.000000
6066		-195.000000
6067		-1535.000000
6068		-825.000000
6069		460.000000
6070		-715.000000
6071		-15.000000
6072		1392.500000
6073		-1082.500000
6074		795.000000
6075		-402.500000
6076		232.500000
6077		-442.500000
6078		160.000000
6079		-1607.500000
6080		-260.000000
6081		267.500000
6082		-357.500000
6083		302.500000
6084		100.000000
6085		677.500000
6086		-870.000000
6087		915.000000
6088		390.000000
6089		832.500000
6090		612.500000
6091		745.000000
6092		-107.500000
6093		-302.500000
6094		-1637.500000
6095		-1682.500000
6096		-550.000000
6097		-217.500000
6098		-122.500000
6099		-750.000000
6100		225.000000
6101		-932.500000
6102		495.000000
6103		447.500000
6104		852.500000
6105		-1310.000000
6106		-447.500000
6107		685.000000
6108		-342.500000
6109		-825.000000
6110		-1072.500000
6111		-1110.000000
6112		-640.000000
6113		-215.000000
6114		-495.000000
6115		777.500000
6116		817.500000
6117		-372.500000
6118		235.000000
6119		-367.500000
6120		-632.500000
6121		-102.500000
6122		1300.000000
6123		287.500000
6124		592.500000
6125		452.500000
6126		212.500000
6127		522.500000
6128		-140.000000
6129		-75.000000
6130		-640.000000
6131		-52.500000
6132		1345.000000
6133		-237.500000
6134		-772.500000
6135		-895.000000
6136		-152.500000
6137		-440.000000
6138		255.000000
6139		1060.000000
6140		480.000000
6141		-867.500000
6142		720.000000
6143		1095.000000
6144		-442.500000
6145		-530.000000
6146		-1980.000000
6147		-700.000000
6148		-105.000000
6149		312.500000
6150		-242.500000
6151		905.000000
6152		972.500000
6153		-157.500000
6154		592.500000
6155		-130.000000
6156		-820.000000
6157		-885.000000
6158		540.000000
6159		-42.500000
6160		1717.500000
6161		442.500000
6162		-1625.000000
6163		985.000000
6164		-837.500000
6165		-1285.000000
6166		717.500000
6167		820.000000
6168		537.500000
6169		-1585.000000
6170		-795.000000
6171		-92.500000
6172		957.500000
6173		1260.000000
6174		522.500000
6175		907.500000
6176		122.500000
6177		-830.000000
6178		1737.500000
6179		-337.500000
6180		137.500000
6181		410.000000
6182		1610.000000
6183		-685.000000
6184		-195.000000
6185		210.000000
6186		-1915.000000
6187		112.500000
6188		-730.000000
6189		-450.000000
6190		-240.000000
6191		-945.000000
6192		500.000000
6193		312.500000
6194		-837.500000
6195		-1405.000000
6196		147.500000
6197		-530.000000
6198		30.000000
6199		-445.000000
6200		-637.500000
6201		177.500000
6202		-377.500000
6203		1487.500000
6204		70.000000
6205		1112.500000
6206		-585.000000
6207		-530.000000
6208		-765.000000
6209		-1822.500000
6210		280.000000
6211		702.500000
6212		1035.000000
6213		-1450.000000
6214		457.500000
6215		-610.000000
6216		20.000000
6217		1250.000000
6218		247.500000
6219		257.500000
6220		-1155.000000
6221		-907.500000
6222		100.000000
6223		-740.000000
6224		-240.000000
6225		282.500000
6226		572.500000
6227		477.500000
6228		407.500000
6229		657.500000
6230		1152.500000
6231		-382.500000
6232		97.500000
6233		-437.500000
6234		-75.000000
6235		-192.500000
6236		-292.500000
6237		40.000000
6238		-1325.000000
6239		252.500000
6240		-820.000000
6241		-447.500000
6242		365.000000
6243		287.500000
6244		55.000000
6245		532.500000
6246		660.000000
6247		-970.000000
6248		427.500000
6249		1607.500000
6250		785.000000
6251		282.500000
6252		-527.500000
6253		362.500000
6254		982.500000
6255		407.500000
6256		-1200.000000
6257		992.500000
6258		-817.500000
6259		-165.000000
6260		687.500000
6261		925.000000
6262		790.000000
6263		-185.000000
6264		50.000000
6265		-192.500000
6266		-140.000000
6267		297.500000
6268		840.000000
6269		135.000000
6270		-970.000000
6271		-440.000000
6272		1172.500000
6273		-400.000000
6274		1060.000000
6275		635.000000
6276		575.000000
6277		-980.000000
6278		205.000000
6279		-662.500000
6280		-840.000000
6281		870.000000
6282		20.000000
6283		95.000000
6284		285.000000
6285		407.500000
6286		-697.500000
6287		-590.000000
6288		-905.000000
6289		60.000000
6290		-980.000000
6291		985.000000
6292		285.000000
6293		-757.500000
6294		265.000000
6295		-775.000000
6296		802.500000
6297		292.500000
6298		657.500000
6299		-317.500000
6300		492.500000
6301		1105.000000
6302		185.000000
6303		-1350.000000
6304		-632.500000
6305		-1482.500000
6306		1447.500000
6307		-1087.500000
6308		-162.500000
6309		-612.500000
6310		40.000000
6311		480.000000
6312		205.000000
6313		-420.000000
6314		702.500000
6315		-1955.000000
6316		1045.000000
6317		-227.500000
6318		50.000000
6319		-1400.000000
6320		655.000000
6321		12.500000
6322		620.000000
6323		-255.000000
6324		-982.500000
6325		860.000000
6326		257.500000
6327		-722.500000
6328		2212.500000
6329		1365.000000
6330		-530.000000
6331		837.500000
6332		130.000000
6333		-10.000000
6334		235.000000
6335		-772.500000
6336		-482.500000
6337		420.000000
6338		-532.500000
6339		-822.500000
6340		-90.000000
6341		-167.500000
6342		80.000000
6343		95.000000
6344		902.500000
6345		-282.500000
6346		410.000000
6347		775.000000
6348		515.000000
6349		67.500000
6350		-137.500000
6351		-1327.500000
6352		692.500000
6353		817.500000
6354		-1397.500000
6355		682.500000
6356		-577.500000
6357		-297.500000
6358		-10.000000
6359		-425.000000
6360		332.500000
6361		460.000000
6362		1250.000000
6363		-1195.000000
6364		370.000000
6365		275.000000
6366		200.000000
6367		-577.500000
6368		-1550.000000
6369		1270.000000
6370		-7.500000
6371		-595.000000
6372		-720.000000
6373		-510.000000
6374		-552.500000
6375		-1870.000000
6376		1630.000000
6377		440.000000
6378		-755.000000
6379		700.000000
6380		1595.000000
6381		720.000000
6382		850.000000
6383		-942.500000
6384		1307.500000
6385		917.500000
6386		1230.000000
6387		-1252.500000
6388		-560.000000
6389		-400.000000
6390		-1487.500000
6391		1195.000000
6392		-1185.000000
6393		-580.000000
6394		230.000000
6395		-745.000000
6396		-1090.000000
6397		5.000000
6398		-547.500000
6399		82.500000
6400		-662.500000
6401		1057.500000
6402		-542.500000
6403		1365.000000
6404		-665.000000
6405		-415.000000
6406		270.000000
6407		1627.500000
6408		1282.500000
6409		-887.500000
6410		-242.500000
6411		-30.000000
6412		7.500000
6413		-32.500000
6414		77.500000
6415		-532.500000
6416		-1115.000000
6417		-447.500000
6418		260.000000
6419		-1007.500000
6420		397.500000
6421		940.000000
6422		-1170.000000
6423		-850.000000
6424		965.000000
6425		537.500000
6426		612.500000
6427		455.000000
6428		477.500000
6429		330.000000
6430		-295.000000
6431		-1232.500000
6432		-55.000000
6433		-2.500000
6434		-1360.000000
6435		57.500000
6436		-515.000000
6437		232.500000
6438		257.500000
6439		-1132.500000
6440		1297.500000
6441		-1552.500000
6442		1085.000000
6443		-620.000000
6444		-562.500000
6445		-200.000000
6446		-300.000000
6447		-520.000000
6448		-397.500000
6449		-140.000000
6450		582.500000
6451		1005.000000
6452		-1275.000000
6453		-482.500000
6454		650.000000
6455		527.500000
6456		-1002.500000
6457		587.500000
6458		140.000000
6459		-1835.000000
6460		560.000000
6461		1700.000000
6462		50.000000
6463		587.500000
6464		792.500000
6465		347.500000
6466		-902.500000
6467		732.500000
6468		232.500000
6469		-1460.000000
6470		-42.500000
6471		207.500000
6472		-1260.000000
6473		-45.000000
6474		-1502.500000
6475		695.000000
6476		820.000000
6477		80.000000
6478		-1127.500000
6479		35.000000
6480		452.500000
6481		-1992.500000
6482		-937.500000
6483		600.000000
6484		210.000000
6485		40.000000
6486		-267.500000
6487		-237.500000
6488		515.000000
6489		652.500000
6490		962.500000
6491		787.500000
6492		290.000000
6493		345.000000
6494		65.000000
6495		-490.000000
6496		-872.500000
6497		780.000000
6498		-745.000000
6499		-1270.000000
6500		1512.500000
6501		1690.000000
6502		987.500000
6503		-895.000000
6504		307.500000
6505		52.500000
6506		-1270.000000
6507		430.000000
6508		47.500000
6509		397.500000
6510		1850.000000
6511		-42.500000
6512		590.000000
6513		-962.500000
6514		1190.000000
6515		-1280.000000
6516		-72.500000
6517		-285.000000
6518		-1012.500000
6519		835.000000
6520		-582.500000
6521		-1042.500000
6522		-152.500000
6523		-492.500000
6524		122.500000
6525		5.000000
6526		145.000000
6527		290.000000
6528		-1060.000000
6529		-22.500000
6530		-1187.500000
6531		-417.500000
6532		-1442.500000
6533		565.000000
6534		-820.000000
6535		1235.000000
6536		-872.500000
6537		-262.500000
6538		-1190.000000
6539		960.000000
6540		227.500000
6541		1412.500000
6542		40.000000
6543		-2032.500000
6544		1085.000000
6545		895.000000
6546		-1055.000000
6547		-410.000000
6548		-2.500000
6549		-12.500000
6550		497.500000
6551		270.000000
6552		-332.500000
6553		-172.500000
6554		-922.500000
6555		-707.500000
6556		-400.000000
6557		735.000000
6558		-65.000000
6559		-180.000000
6560		942.500000
6561		-960.000000
6562		0.000000
6563		-190.000000
6564		-515.000000
6565		1372.500000
6566		-1455.000000
6567		442.500000
6568		930.000000
6569		-1395.000000
6570		-170.000000
6571		825.000000
6572		-1617.500000
6573		-720.000000
6574		282.500000
6575		-305.000000
6576		-967.500000
6577		-337.500000
6578		472.500000
6579		-170.000000
6580		40.000000
6581		-995.000000
6582		-437.500000
6583		847.500000
6584		-395.000000
6585		-1217.500000
6586		-1000.000000
6587		70.000000
6588		87.500000
6589		577.500000
6590		-1625.000000
6591		965.000000
6592		-337.500000
6593		-182.500000
6594		-607.500000
6595		-670.000000
6596		122.500000
6597		-1622.500000
6598		510.000000
6599		102.500000
6600		800.000000
6601		1680.000000
6602		-592.500000
6603		160.000000
6604		-380.000000
6605		-372.500000
6606		1377.500000
6607		-282.500000
6608		-690.000000
6609		-1125.000000
6610		-310.000000
6611		2237.500000
6612		-367.500000
6613		-927.500000
6614		-520.000000
6615		-400.000000
6616		-220.000000
6617		-1385.000000
6618		-380.000000
6619		917.500000
6620		-1037.500000
6621		-670.000000
6622		-82.500000
6623		-827.500000
6624		-122.500000
6625		430.000000
6626		-147.500000
6627		-1037.500000
6628		-907.500000
6629		805.000000
6630		115.000000
6631		840.000000
6632		510.000000
6633		1697.500000
6634		217.500000
6635		-662.500000
6636		-887.500000
6637		-735.000000
6638		-507.500000
6639		677.500000
6640		-110.000000
6641		1407.500000
6642		325.000000
6643		-312.500000
6644		-945.000000
6645		20.000000
6646		25.000000
6647		-432.500000
6648		492.500000
6649		130.000000
6650		1247.500000
6651		402.500000
6652		202.500000
6653		-505.000000
6654		337.500000
6655		-22.500000
6656		377.500000
6657		-437.500000
6658		362.500000
6659		157.500000
6660		-872.500000
6661		-2045.000000
6662		-1510.000000
6663		260.000000
6664		1617.500000
6665		-660.000000
6666		130.000000
6667		1535.000000
6668		-595.000000
6669		-275.000000
6670		-342.500000
6671		205.000000
6672		-130.000000
6673		-385.000000
6674		-1657.500000
6675		-710.000000
6676		-422.500000
6677		-1342.500000
6678		1092.500000
6679		-565.000000
6680		975.000000
6681		-295.000000
6682		1512.500000
6683		-582.500000
6684		107.500000
6685		1265.000000
6686		192.500000
6687		-445.000000
6688		257.500000
6689		277.500000
6690		-660.000000
6691		-465.000000
6692		-145.000000
6693		1087.500000
6694		117.500000
6695		630.000000
6696		485.000000
6697		-625.000000
6698		65.000000
6699		-25.000000
6700		712.500000
6701		632.500000
6702		-60.000000
6703		605.000000
6704		1045.000000
6705		-1930.000000
6706		-482.500000
6707		875.000000
6708		120.000000
6709		-505.000000
6710		475.000000
6711		407.500000
6712		372.500000
6713		442.500000
6714		-680.000000
6715		-270.000000
6716		-155.000000
6717		-332.500000
6718		-367.500000
6719		-415.000000
6720		917.500000
6721		1157.500000
6722		-765.000000
6723		535.000000
6724		-1835.000000
6725		1282.500000
6726		-82.500000
6727		1672.500000
6728		745.000000
6729		-1157.500000
6730		-45.000000
6731		-267.500000
6732		832.500000
6733		1377.500000
6734		822.500000
6735		-965.000000
6736		50.000000
6737		380.000000
6738		77.500000
6739		667.500000
6740		75.000000
6741		-1507.500000
6742		-47.500000
6743		600.000000
6744		-395.000000
6745		1047.500000
6746		382.500000
6747		1862.500000
6748		-922.500000
6749		177.500000
6750		-232.500000
6751		52.500000
6752		70.000000
6753		10.000000
6754		-1430.000000
6755		1622.500000
6756		-470.000000
6757		245.000000
6758		927.500000
6759		-1000.000000
6760		1462.500000
6761		-1897.500000
6762		-37.500000
6763		-275.000000
6764		-670.000000
6765		62.500000
6766		1402.500000
6767		85.000000
6768		1507.500000
6769		315.000000
6770		-315.000000
6771		332.500000
6772		815.000000
6773		170.000000
6774		-680.000000
6775		675.000000
6776		425.000000
6777		-320.000000
6778		587.500000
6779		737.500000
6780		-1312.500000
6781		-95.000000
6782		372.500000
6783		430.000000
6784		-1507.500000
6785		487.500000
6786		-2.500000
6787		-1002.500000
6788		-152.500000
6789		-375.000000
6790		-1387.500000
6791		365.000000
6792		435.000000
6793		-745.000000
6794		517.500000
6795		-1300.000000
6796		832.500000
6797		-297.500000
6798		195.000000
6799		1097.500000
6800		977.500000
6801		430.000000
6802		590.000000
6803		1145.000000
6804		232.500000
6805		-207.500000
6806		-912.500000
6807		1120.000000
6808		1580.000000
6809		1315.000000
6810		-232.500000
6811		612.500000
6812		782.500000
6813		-792.500000
6814		680.000000
6815		-762.500000
6816		-1520.000000
6817		-1107.500000
6818		440.000000
6819		1045.000000
6820		427.500000
6821		660.000000
6822		-280.000000
6823		-67.500000
6824		547.500000
6825		-757.500000
6826		90.000000
6827		12.500000
6828		-275.000000
6829		235.000000
6830		-1027.500000
6831		-75.000000
6832		915.000000
6833		-1727.500000
6834		-352.500000
6835		155.000000
6836		1620.000000
6837		980.000000
6838		-432.500000
6839		-1050.000000
6840		100.000000
6841		-715.000000
6842		462.500000
6843		-82.500000
6844		-1637.500000
6845		-465.000000
6846		-277.500000
6847		-95.000000
6848		1255.000000
6849		605.000000
6850		405.000000
6851		660.000000
6852		235.000000
6853		-70.000000
6854		447.500000
6855		-37.500000
6856		-420.000000
6857		-462.500000
6858		185.000000
6859		1595.000000
6860		-1987.500000
6861		155.000000
6862		1172.500000
6863		890.000000
6864		-1160.000000
6865		197.500000
6866		-160.000000
6867		-1037.500000
6868		-815.000000
6869		-222.500000
6870		457.500000
6871		-190.000000
6872		827.500000
6873		55.000000
6874		-1020.000000
6875		-967.500000
6876		1420.000000
6877		-7.500000
6878		685.000000
6879		522.500000
6880		762.500000
6881		57.500000
6882		327.500000
6883		-582.500000
6884		525.000000
6885		1225.000000
6886		-420.000000
6887		-862.500000
6888		-10.000000
6889		-675.000000
6890		330.000000
6891		662.500000
6892		-1075.000000
6893		-737.500000
6894		457.500000
6895		-782.500000
6896		-447.500000
6897		-975.000000
6898		-1012.500000
6899		317.500000
6900		-927.500000
6901		197.500000
6902		190.000000
6903		-792.500000
6904		387.500000
6905		-117.500000
6906		200.000000
6907		650.000000
6908		-665.000000
6909		-1015.000000
6910		-685.000000
6911		-335.000000
6912		-785.000000
6913		-192.500000
6914		522.500000
6915		702.500000
6916		-1950.000000
6917		-117.500000
6918		-70.000000
6919		-515.000000
6920		797.500000
6921		-225.000000
6922		457.500000
6923		-542.500000
6924		527.500000
6925		232.500000
6926		-312.500000
6927		1717.500000
6928		-87.500000
6929		-720.000000
6930		615.000000
6931		-685.000000
6932		1430.000000
6933		367.500000
6934		-1975.000000
6935		770.000000
6936		-357.500000
6937		882.500000
6938		-1115.000000
6939		-30.000000
6940		-935.000000
6941		-582.500000
6942		1040.000000
6943		450.000000
6944		-410.000000
6945		-395.000000
6946		202.500000
6947		-1415.000000
6948		-12.500000
6949		-150.000000
6950		-340.000000
6951		1032.500000
6952		197.500000
6953		90.000000
6954		455.000000
6955		-1200.000000
6956		337.500000
6957		-457.500000
6958		792.500000
6959		-217.500000
6960		1170.000000
6961		677.500000
6962		-1260.000000
6963		-547.500000
6964		50.000000
6965		-1130.000000
6966		-730.000000
6967		-102.500000
6968		1030.000000
6969		445.000000
6970		637.500000
6971		767.500000
6972		-130.000000
6973		142.500000
6974		-847.500000
6975		1187.500000
6976		-190.000000
6977		-1320.000000
6978		557.500000
6979		-25.000000
6980		520.000000
6981		-47.500000
6982		-560.000000
6983		200.000000
6984		-1417.500000
6985		-157.500000
6986		-292.500000
6987		-490.000000
6988		-435.000000
6989		675.000000
6990		85.000000
6991		-1810.000000
6992		-345.000000
6993		-452.500000
6994		-1087.500000
6995		390.000000
6996		1460.000000
6997		517.500000
6998		-320.000000
6999		-712.500000
7000		-1350.000000
7001		-172.500000
7002		-47.500000
7003		-392.500000
7004		-345.000000
7005		-1375.000000
7006		-575.000000
7007		-665.000000
7008		1957.500000
7009		325.000000
7010		682.500000
7011		-350.000000
7012		607.500000
7013		-547.500000
7014		-242.500000
7015		-1350.000000
7016		82.500000
7017		70.000000
7018		-995.000000
7019		697.500000
7020		-422.500000
7021		-210.000000
7022		1377.500000
7023		-920.000000
7024		-122.500000
7025		-1100.000000
7026		177.500000
7027		837.500000
7028		-272.500000
7029		117.500000
7030		87.500000
7031		-407.500000
7032		-1647.500000
7033		532.500000
7034		1047.500000
7035		327.500000
7036		-492.500000
7037		-780.000000
7038		-975.000000
7039		-90.000000
7040		985.000000
7041		1180.000000
7042		392.500000
7043		-1587.500000
7044		-985.000000
7045		-237.500000
7046		-737.500000
7047		-760.000000
7048		65.000000
7049		915.000000
7050		-237.500000
7051		-180.000000
7052		1050.000000
7053		-410.000000
7054		-155.000000
7055		-862.500000
7056		407.500000
7057		-1005.000000
7058		815.000000
7059		-432.500000
7060		372.500000
7061		-1035.000000
7062		610.000000
7063		-1200.000000
7064		-1325.000000
7065		902.500000
7066		612.500000
7067		632.500000
7068		-1002.500000
7069		1727.500000
7070		-1310.000000
7071		932.500000
7072		1500.000000
7073		-267.500000
7074		355.000000
7075		-827.500000
7076		-267.500000
7077		1487.500000
7078		337.500000
7079		-2015.000000
7080		2272.500000
7081		307.500000
7082		-410.000000
7083		1270.000000
7084		1092.500000
7085		-257.500000
7086		-902.500000
7087		-552.500000
7088		977.500000
7089		340.000000
7090		317.500000
7091		-1522.500000
7092		1260.000000
7093		217.500000
7094		-580.000000
7095		847.500000
7096		655.000000
7097		330.000000
7098		-2185.000000
7099		-1117.500000
7100		625.000000
7101		-582.500000
7102		100.000000
7103		-1695.000000
7104		252.500000
7105		-1410.000000
7106		-202.500000
7107		-745.000000
7108		735.000000
7109		725.000000
7110		367.500000
7111		732.500000
7112		-390.000000
7113		365.000000
7114		-360.000000
7115		12.500000
7116		-132.500000
7117		442.500000
7118		-925.000000
7119		-972.500000
7120		950.000000
7121		-620.000000
7122		-380.000000
7123		755.000000
7124		-852.500000
7125		-837.500000
7126		1337.500000
7127		-720.000000
7128		970.000000
7129		-1825.000000
7130		-40.000000
7131		-495.000000
7132		-227.500000
7133		325.000000
7134		-1312.500000
7135		300.000000
7136		-665.000000
7137		-42.500000
7138		210.000000
7139		412.500000
7140		-1085.000000
7141		-370.000000
7142		1107.500000
7143		-1202.500000
7144		-955.000000
7145		-750.000000
7146		292.500000
7147		275.000000
7148		442.500000
7149		620.000000
7150		312.500000
7151		-537.500000
7152		-1342.500000
7153		-882.500000
7154		560.000000
7155		607.500000
7156		-360.000000
7157		1030.000000
7158		-957.500000
7159		22.500000
7160		-1202.500000
7161		-1357.500000
7162		-447.500000
7163		807.500000
7164		127.500000
7165		-397.500000
7166		-550.000000
7167		-752.500000
7168		-232.500000
7169		-187.500000
7170		95.000000
7171		1385.000000
7172		225.000000
7173		140.000000
7174		1562.500000
7175		-387.500000
7176		-55.000000
7177		757.500000
7178		755.000000
7179		1112.500000
7180		1140.000000
7181		685.000000
7182		-1032.500000
7183		427.500000
7184		705.000000
7185		-852.500000
7186		52.500000
7187		1077.500000
7188		-1390.000000
7189		-1130.000000
7190		1312.500000
7191		407.500000
7192		-462.500000
7193		-517.500000
7194		-295.000000
7195		-617.500000
7196		427.500000
7197		832.500000
7198		-1057.500000
7199		267.500000
7200		-480.000000
7201		580.000000
7202		-112.500000
7203		-1777.500000
7204		-82.500000
7205		-620.000000
7206		77.500000
7207		445.000000
7208		-977.500000
7209		80.000000
7210		-430.000000
7211		-145.000000
7212		1052.500000
7213		145.000000
7214		1322.500000
7215		-352.500000
7216		1285.000000
7217		470.000000
7218		392.500000
7219		365.000000
7220		805.000000
7221		1427.500000
7222		-35.000000
7223		-780.000000
7224		1065.000000
7225		-607.500000
7226		-792.500000
7227		1030.000000
7228		572.500000
7229		-200.000000
7230		-837.500000
7231		-412.500000
7232		-265.000000
7233		1030.000000
7234		82.500000
7235		-1535.000000
7236		-1022.500000
7237		-280.000000
7238		737.500000
7239		-1257.500000
7240		235.000000
7241		-490.000000
7242		735.000000
7243		-1820.000000
7244		170.000000
7245		480.000000
7246		-810.000000
7247		682.500000
7248		497.500000
7249		520.000000
7250		-870.000000
7251		-875.000000
7252		-647.500000
7253		-192.500000
7254		-1220.000000
7255		-1142.500000
7256		-2147.500000
7257		147.500000
7258		-1010.000000
7259		797.500000
7260		880.000000
7261		680.000000
7262		1390.000000
7263		-850.000000
7264		207.500000
7265		1147.500000
7266		1677.500000
7267		-602.500000
7268		597.500000
7269		252.500000
7270		-540.000000
7271		1050.000000
7272		-777.500000
7273		-907.500000
7274		-1117.500000
7275		-315.000000
7276		-1400.000000
7277		-497.500000
7278		660.000000
7279		-685.000000
7280		820.000000
7281		-47.500000
7282		-867.500000
7283		-2382.500000
7284		-972.500000
7285		-42.500000
7286		-715.000000
7287		340.000000
7288		-630.000000
7289		267.500000
7290		-237.500000
7291		317.500000
7292		605.000000
7293		197.500000
7294		452.500000
7295		852.500000
7296		-847.500000
7297		47.500000
7298		-2087.500000
7299		12.500000
7300		755.000000
7301		-185.000000
7302		60.000000
7303		-437.500000
7304		-467.500000
7305		635.000000
7306		550.000000
7307		-647.500000
7308		802.500000
7309		465.000000
7310		-2.500000
7311		-1137.500000
7312		1100.000000
7313		590.000000
7314		447.500000
7315		-400.000000
7316		-390.000000
7317		1007.500000
7318		-1172.500000
7319		-762.500000
7320		637.500000
7321		-327.500000
7322		1380.000000
7323		220.000000
7324		-990.000000
7325		-857.500000
7326		-1182.500000
7327		-767.500000
7328		-977.500000
7329		-437.500000
7330		442.500000
7331		425.000000
7332		-495.000000
7333		1110.000000
7334		-545.000000
7335		-725.000000
7336		182.500000
7337		-285.000000
7338		-1222.500000
7339		-357.500000
7340		-1407.500000
7341		-1122.500000
7342		1295.000000
7343		-95.000000
7344		1207.500000
7345		-392.500000
7346		15.000000
7347		-957.500000
7348		-1317.500000
7349		900.000000
7350		-477.500000
7351		1590.000000
7352		-847.500000
7353		1060.000000
7354		-510.000000
7355		-142.500000
7356		-60.000000
7357		-592.500000
7358		290.000000
7359		517.500000
7360		337.500000
7361		-745.000000
7362		50.000000
7363		-745.000000
7364		-365.000000
7365		850.000000
7366		1250.000000
7367		-362.500000
7368		-440.000000
7369		-352.500000
7370		952.500000
7371		847.500000
7372		-1115.000000
7373		812.500000
7374		1847.500000
7375		1010.000000
7376		110.000000
7377		-250.000000
7378		-150.000000
7379		-370.000000
7380		-920.000000
7381		282.500000
7382		172.500000
7383		-1255.000000
7384		-2402.500000
7385		-335.000000
7386		347.500000
7387		-777.500000
7388		177.500000
7389		-605.000000
7390		-387.500000
7391		-287.500000
7392		335.000000
7393		662.500000
7394		332.500000
7395		17.500000
7396		1532.500000
7397		-555.000000
7398		-497.500000
7399		260.000000
7400		-325.000000
7401		1062.500000
7402		785.000000
7403		727.500000
7404		-330.000000
7405		-615.000000
7406		-1075.000000
7407		-130.000000
7408		87.500000
7409		915.000000
7410		347.500000
7411		-97.500000
7412		-582.500000
7413		675.000000
7414		-462.500000
7415		1072.500000
7416		-487.500000
7417		-582.500000
7418		-1152.500000
7419		-95.000000
7420		-187.500000
7421		237.500000
7422		1622.500000
7423		-1850.000000
7424		-632.500000
7425		475.000000
7426		1107.500000
7427		870.000000
7428		385.000000
7429		-612.500000
7430		-745.000000
7431		-60.000000
7432		-1277.500000
7433		-337.500000
7434		-710.000000
7435		525.000000
7436		880.000000
7437		-722.500000
7438		-287.500000
7439		1270.000000
7440		140.000000
7441		852.500000
7442		-35.000000
7443		1060.000000
7444		647.500000
7445		-532.500000
7446		872.500000
7447		-720.000000
7448		360.000000
7449		-590.000000
7450		280.000000
7451		-747.500000
7452		-102.500000
7453		-347.500000
7454		-765.000000
7455		230.000000
7456		212.500000
7457		850.000000
7458		495.000000
7459		-817.500000
7460		1217.500000
7461		-547.500000
7462		-27.500000
7463		-887.500000
7464		1080.000000
7465		435.000000
7466		-572.500000
7467		230.000000
7468		-1122.500000
7469		-317.500000
7470		967.500000
7471		585.000000
7472		42.500000
7473		-515.000000
7474		625.000000
7475		-5.000000
7476		1147.500000
7477		595.000000
7478		532.500000
7479		192.500000
7480		-1480.000000
7481		330.000000
7482		805.000000
7483		22.500000
7484		382.500000
7485		577.500000
7486		-405.000000
7487		247.500000
7488		-942.500000
7489		620.000000
7490		-412.500000
7491		-795.000000
7492		252.500000
7493		825.000000
7494		677.500000
7495		167.500000
7496		302.500000
7497		240.000000
7498		-632.500000
7499		-232.500000
7500		427.500000
7501		1290.000000
7502		-965.000000
7503		-1277.500000
7504		230.000000
7505		-322.500000
7506		-85.000000
7507		640.000000
7508		-215.000000
7509		-717.500000
7510		1257.500000
7511		-1010.000000
7512		-967.500000
7513		-482.500000
7514		730.000000
7515		1170.000000
7516		-35.000000
7517		427.500000
7518		-990.000000
7519		-887.500000
7520		462.500000
7521		657.500000
7522		1710.000000
7523		32.500000
7524		407.500000
7525		-335.000000
7526		607.500000
7527		-2352.500000
7528		-902.500000
7529		-130.000000
7530		1067.500000
7531		567.500000
7532		235.000000
7533		-107.500000
7534		-35.000000
7535		-140.000000
7536		-990.000000
7537		-1520.000000
7538		450.000000
7539		-480.000000
7540		822.500000
7541		-447.500000
7542		695.000000
7543		227.500000
7544		312.500000
7545		-1270.000000
7546		-555.000000
7547		297.500000
7548		-290.000000
7549		-857.500000
7550		190.000000
7551		502.500000
7552		-470.000000
7553		-247.500000
7554		602.500000
7555		272.500000
7556		-190.000000
7557		335.000000
7558		-787.500000
7559		737.500000
7560		-1780.000000
7561		430.000000
7562		512.500000
7563		-412.500000
7564		722.500000
7565		1107.500000
7566		-877.500000
7567		-202.500000
7568		1112.500000
7569		-1935.000000
7570		-580.000000
7571		-1282.500000
7572		-1112.500000
7573		-692.500000
7574		705.000000
7575		767.500000
7576		-1365.000000
7577		-1340.000000
7578		422.500000
7579		752.500000
7580		-790.000000
7581		-420.000000
7582		1547.500000
7583		-810.000000
7584		-747.500000
7585		280.000000
7586		232.500000
7587		-557.500000
7588		-395.000000
7589		1062.500000
7590		-540.000000
7591		107.500000
7592		-645.000000
7593		612.500000
7594		-570.000000
7595		-1900.000000
7596		-1050.000000
7597		-210.000000
7598		525.000000
7599		1102.500000
7600		195.000000
7601		37.500000
7602		247.500000
7603		345.000000
7604		-1077.500000
7605		190.000000
7606		-1627.500000
7607		-237.500000
7608		-650.000000
7609		-775.000000
7610		-275.000000
7611		532.500000
7612		-1035.000000
7613		-1220.000000
7614		1342.500000
7615		885.000000
7616		157.500000
7617		-222.500000
7618		-152.500000
7619		242.500000
7620		-920.000000
7621		275.000000
7622		-1302.500000
7623		930.000000
7624		-747.500000
7625		580.000000
7626		392.500000
7627		602.500000
7628		-5.000000
7629		1690.000000
7630		212.500000
7631		945.000000
7632		92.500000
7633		377.500000
7634		160.000000
7635		-1590.000000
7636		-757.500000
7637		240.000000
7638		-457.500000
7639		-787.500000
7640		640.000000
7641		1015.000000
7642		727.500000
7643		462.500000
7644		-810.000000
7645		1720.000000
7646		-967.500000
7647		-1165.000000
7648		140.000000
7649		325.000000
7650		867.500000
7651		-227.500000
7652		-105.000000
7653		292.500000
7654		890.000000
7655		-802.500000
7656		1432.500000
7657		-310.000000
7658		-1252.500000
7659		-1175.000000
7660		712.500000
7661		147.500000
7662		322.500000
7663		-1225.000000
7664		337.500000
7665		102.500000
7666		-437.500000
7667		802.500000
7668		197.500000
7669		455.000000
7670		77.500000
7671		1320.000000
7672		-392.500000
7673		-137.500000
7674		-660.000000
7675		807.500000
7676		440.000000
7677		-1122.500000
7678		-210.000000
7679		517.500000
7680		-572.500000
7681		87.500000
7682		-1680.000000
7683		-817.500000
7684		267.500000
7685		-190.000000
7686		-1400.000000
7687		72.500000
7688		825.000000
7689		-1142.500000
7690		-100.000000
7691		-1192.500000
7692		882.500000
7693		15.000000
7694		-500.000000
7695		-27.500000
7696		-107.500000
7697		1347.500000
7698		-1022.500000
7699		30.000000
7700		-680.000000
7701		1102.500000
7702		27.500000
7703		-135.000000
7704		-680.000000
7705		167.500000
7706		-492.500000
7707		27.500000
7708		152.500000
7709		-997.500000
7710		142.500000
7711		652.500000
7712		2177.500000
7713		-1030.000000
7714		-660.000000
7715		712.500000
7716		25.000000
7717		262.500000
7718		685.000000
7719		615.000000
7720		1010.000000
7721		630.000000
7722		892.500000
7723		-907.500000
7724		660.000000
7725		172.500000
7726		1832.500000
7727		185.000000
7728		-172.500000
7729		1042.500000
7730		-37.500000
7731		562.500000
7732		-1660.000000
7733		112.500000
7734		12.500000
7735		-1282.500000
7736		882.500000
7737		72.500000
7738		-1380.000000
7739		760.000000
7740		-1600.000000
7741		-102.500000
7742		-357.500000
7743		-837.500000
7744		1310.000000
7745		-602.500000
7746		-507.500000
7747		-955.000000
7748		-1472.500000
7749		1667.500000
7750		-215.000000
7751		52.500000
7752		460.000000
7753		580.000000
7754		-1040.000000
7755		597.500000
7756		-735.000000
7757		-940.000000
7758		-887.500000
7759		1622.500000
7760		307.500000
7761		507.500000
7762		-695.000000
7763		942.500000
7764		1037.500000
7765		-710.000000
7766		-970.000000
7767		12.500000
7768		830.000000
7769		845.000000
7770		-240.000000
7771		-142.500000
7772		-582.500000
7773		-125.000000
7774		-1642.500000
7775		620.000000
7776		917.500000
7777		-280.000000
7778		-337.500000
7779		102.500000
7780		-730.000000
7781		-737.500000
7782		-7.500000
7783		-227.500000
7784		607.500000
7785		-575.000000
7786		592.500000
7787		1875.000000
7788		-1625.000000
7789		-1350.000000
7790		335.000000
7791		300.000000
7792		175.000000
7793		525.000000
7794		-95.000000
7795		-1007.500000
7796		-317.500000
7797		-1047.500000
7798		437.500000
7799		325.000000
7800		-110.000000
7801		-1120.000000
7802		-320.000000
7803		-852.500000
7804		-907.500000
7805		130.000000
7806		-57.500000
7807		70.000000
7808		-425.000000
7809		230.000000
7810		-732.500000
7811		-157.500000
7812		-495.000000
7813		-855.000000
7814		452.500000
7815		-222.500000
7816		-782.500000
7817		-1115.000000
7818		-432.500000
7819		1435.000000
7820		177.500000
7821		-1167.500000
7822		185.000000
7823		-105.000000
7824		-612.500000
7825		1045.000000
7826		235.000000
7827		100.000000
7828		602.500000
7829		1015.000000
7830		620.000000
7831		-25.000000
7832		-972.500000
7833		917.500000
7834		-805.000000
7835		732.500000
7836		-117.500000
7837		-177.500000
7838		1045.000000
7839		-775.000000
7840		167.500000
7841		-220.000000
7842		1142.500000
7843		-80.000000
7844		355.000000
7845		-1070.000000
7846		817.500000
7847		-557.500000
7848		65.000000
7849		-270.000000
7850		712.500000
7851		192.500000
7852		770.000000
7853		-777.500000
7854		435.000000
7855		-1122.500000
7856		587.500000
7857		697.500000
7858		297.500000
7859		395.000000
7860		-320.000000
7861		-975.000000
7862		180.000000
7863		367.500000
7864		-107.500000
7865		397.500000
7866		497.500000
7867		957.500000
7868		-85.000000
7869		605.000000
7870		202.500000
7871		510.000000
7872		-737.500000
7873		-707.500000
7874		-2127.500000
7875		2.500000
7876		785.000000
7877		-1977.500000
7878		637.500000
7879		-47.500000
7880		-1510.000000
7881		-857.500000
7882		-557.500000
7883		-1092.500000
7884		465.000000
7885		-452.500000
7886		1290.000000
7887		487.500000
7888		755.000000
7889		592.500000
7890		570.000000
7891		-392.500000
7892		-135.000000
7893		690.000000
7894		-112.500000
7895		1040.000000
7896		1200.000000
7897		-327.500000
7898		522.500000
7899		462.500000
7900		105.000000
7901		-887.500000
7902		1312.500000
7903		130.000000
7904		-492.500000
7905		-272.500000
7906		-987.500000
7907		642.500000
7908		307.500000
7909		-460.000000
7910		352.500000
7911		-162.500000
7912		327.500000
7913		-17.500000
7914		295.000000
7915		-35.000000
7916		955.000000
7917		1477.500000
7918		-1277.500000
7919		1017.500000
7920		-910.000000
7921		42.500000
7922		1302.500000
7923		1232.500000
7924		-710.000000
7925		85.000000
7926		1042.500000
7927		-45.000000
7928		-360.000000
7929		1305.000000
7930		-325.000000
7931		-827.500000
7932		1487.500000
7933		445.000000
7934		-642.500000
7935		612.500000
7936		925.000000
7937		825.000000
7938		-247.500000
7939		-1780.000000
7940		392.500000
7941		1092.500000
7942		200.000000
7943		-1240.000000
7944		-127.500000
7945		-352.500000
7946		817.500000
7947		-980.000000
7948		-870.000000
7949		-612.500000
7950		-567.500000
7951		1232.500000
7952		-40.000000
7953		-970.000000
7954		115.000000
7955		270.000000
7956		280.000000
7957		-347.500000
7958		-695.000000
7959		-2035.000000
7960		-985.000000
7961		97.500000
7962		760.000000
7963		-1272.500000
7964		222.500000
7965		217.500000
7966		1280.000000
7967		-75.000000
7968		832.500000
7969		-37.500000
7970		-577.500000
7971		-200.000000
7972		472.500000
7973		210.000000
7974		-115.000000
7975		-867.500000
7976		625.000000
7977		-915.000000
7978		127.500000
7979		-147.500000
7980		-250.000000
7981		152.500000
7982		1345.000000
7983		500.000000
7984		462.500000
7985		-1117.500000
7986		640.000000
7987		-760.000000
7988		400.000000
7989		-620.000000
7990		-2167.500000
7991		-35.000000
7992		-502.500000
7993		-932.500000
7994		472.500000
7995		62.500000
7996		-272.500000
7997		1057.500000
7998		857.500000
7999		-642.500000
8000		567.500000
8001		1022.500000
8002		-835.000000
8003		-302.500000
8004		-702.500000
8005		-5.000000
8006		-87.500000
8007		492.500000
8008		-1847.500000
8009		-252.500000
8010		322.500000
8011		85.000000
8012		1017.500000
8013		-1342.500000
8014		147.500000
8015		417.500000
8016		105.000000
8017		547.500000
8018		230.000000
8019		-420.000000
8020		-352.500000
8021		482.500000
8022		347.500000
8023		-42.500000
8024		137.500000
8025		807.500000
8026		-177.500000
8027		-530.000000
8028		-932.500000
8029		407.500000
8030		1000.000000
8031		937.500000
8032		-757.500000
8033		857.500000
8034		337.500000
8035		330.000000
8036		-630.000000
8037		-400.000000
8038		737.500000
8039		-1800.000000
8040		140.000000
8041		-2112.500000
8042		-1525.000000
8043		950.000000
8044		1372.500000
8045		895.000000
8046		-65.000000
8047		-1222.500000
8048		-637.500000
8049		-315.000000
8050		-120.000000
8051		-495.000000
8052		190.000000
8053		417.500000
8054		-1847.500000
8055		385.000000
8056		-85.000000
8057		20.000000
8058		-352.500000
8059		-1140.000000
8060		-377.500000
8061		345.000000
8062		-82.500000
8063		195.000000
8064		800.000000
8065		-905.000000
8066		-500.000000
8067		-552.500000
8068		165.000000
8069		510.000000
8070		560.000000
8071		1125.000000
8072		-17.500000
8073		227.500000
8074		1440.000000
8075		-160.000000
8076		-947.500000
8077		-1080.000000
8078		660.000000
8079		-845.000000
8080		375.000000
8081		-550.000000
8082		-525.000000
8083		317.500000
8084		582.500000
8085		502.500000
8086		752.500000
8087		-602.500000
8088		-820.000000
8089		-370.000000
8090		-335.000000
8091		1397.500000
8092		667.500000
8093		42.500000
8094		440.000000
8095		-1015.000000
8096		-635.000000
8097		-402.500000
8098		-682.500000
8099		1160.000000
8100		-1747.500000
8101		482.500000
8102		-607.500000
8103		1230.000000
8104		-452.500000
8105		-255.000000
8106		130.000000
8107		-157.500000
8108		110.000000
8109		-1192.500000
8110		-912.500000
8111		1602.500000
8112		450.000000
8113		-392.500000
8114		1210.000000
8115		480.000000
8116		-185.000000
8117		810.000000
8118		455.000000
8119		-487.500000
8120		-57.500000
8121		-705.000000
8122		562.500000
8123		595.000000
8124		342.500000
8125		-297.500000
8126		-300.000000
8127		-752.500000
8128		-657.500000
8129		-1342.500000
8130		-500.000000
8131		655.000000
8132		-382.500000
8133		-650.000000
8134		182.500000
8135		-540.000000
8136		310.000000
8137		-157.500000
8138		27.500000
8139		260.000000
8140		-1222.500000
8141		-87.500000
8142		-1150.000000
8143		507.500000
8144		-232.500000
8145		-665.000000
8146		-820.000000
8147		1450.000000
8148		-912.500000
8149		-1317.500000
8150		-217.500000
8151		132.500000
8152		-180.000000
8153		-755.000000
8154		915.000000
8155		-317.500000
8156		412.500000
8157		322.500000
8158		22.500000
8159		1215.000000
8160		1145.000000
8161		510.000000
8162		-790.000000
8163		-747.500000
8164		-567.500000
8165		512.500000
8166		247.500000
8167		250.000000
8168		610.000000
8169		-872.500000
8170		-820.000000
8171		-545.000000
8172		-825.000000
8173		1577.500000
8174		552.500000
8175		-732.500000
8176		-1010.000000
8177		-940.000000
8178		-1752.500000
8179		-240.000000
8180		512.500000
8181		215.000000
8182		-87.500000
8183		-412.500000
8184		630.000000
8185		-917.500000
8186		-182.500000
8187		1072.500000
8188		330.000000
8189		-1490.000000
8190		1587.500000
8191		85.000000
8192		445.000000
8193		-975.000000
8194		-10.000000
8195		617.500000
8196		995.000000
8197		-1927.500000
8198		-35.000000
8199		657.500000
8200		-312.500000
8201		835.000000
8202		1160.000000
8203		-187.500000
8204		470.000000
8205		300.000000
8206		-307.500000
8207		287.500000
8208		1670.000000
8209		-2205.000000
8210		1057.500000
8211		-432.500000
8212		602.500000
8213		180.000000
8214		455.000000
8215		-97.500000
8216		-1372.500000
8217		-165.000000
8218		-1030.000000
8219		285.000000
8220		187.500000
8221		410.000000
8222		-145.000000
8223		-1642.500000
8224		360.000000
8225		1235.000000
8226		200.000000
8227		-337.500000
8228		-92.500000
8229		250.000000
8230		-502.500000
8231		75.000000
8232		1120.000000
8233		245.000000
8234		705.000000
8235		32.500000
8236		82.500000
8237		280.000000
8238		327.500000
8239		-1495.000000
8240		-1232.500000
8241		192.500000
8242		-230.000000
8243		-297.500000
8244		1117.500000
8245		-287.500000
8246		-1417.500000
8247		60.000000
8248		-160.000000
8249		-672.500000
8250		-247.500000
8251		80.000000
8252		-1162.500000
8253		342.500000
8254		-527.500000
8255		-680.000000
8256		-1575.000000
8257		-892.500000
8258		795.000000
8259		-1760.000000
8260		502.500000
8261		-415.000000
8262		-585.000000
8263		1180.000000
8264		-1297.500000
8265		-917.500000
8266		-55.000000
8267		822.500000
8268		-10.000000
8269		-35.000000
8270		-315.000000
8271		-320.000000
8272		625.000000
8273		-140.000000
8274		437.500000
8275		-227.500000
8276		492.500000
8277		282.500000
8278		395.000000
8279		827.500000
8280		-1065.000000
8281		-725.000000
8282		485.000000
8283		725.000000
8284		-1367.500000
8285		-355.000000
8286		-180.000000
8287		885.000000
8288		695.000000
8289		545.000000
8290		265.000000
8291		695.000000
8292		-610.000000
8293		1072.500000
8294		210.000000
8295		767.500000
8296		1377.500000
8297		225.000000
8298		-362.500000
8299		-552.500000
8300		1315.000000
8301		-35.000000
8302		-1477.500000
8303		1650.000000
8304		-882.500000
8305		-715.000000
8306		-942.500000
8307		-142.500000
8308		1417.500000
8309		622.500000
8310		857.500000
8311		-680.000000
8312		817.500000
8313		822.500000
8314		-867.500000
8315		580.000000
8316		-602.500000
8317		-232.500000
8318		-530.000000
8319		172.500000
8320		160.000000
8321		482.500000
8322		22.500000
8323		-577.500000
8324		-400.000000
8325		-170.000000
8326		50.000000
8327		-837.500000
8328		-1137.500000
8329		-122.500000
8330		-955.000000
8331		282.500000
8332		100.000000
8333		-172.500000
8334		155.000000
8335		-365.000000
8336		-1095.000000
8337		1142.500000
8338		1042.500000
8339		-562.500000
8340		35.000000
8341		377.500000
8342		-415.000000
8343		-722.500000
8344		237.500000
8345		142.500000
8346		-355.000000
8347		525.000000
8348		580.000000
8349		-1252.500000
8350		225.000000
8351		1075.000000
8352		-127.500000
8353		-1015.000000
8354		1045.000000
8355		662.500000
8356		425.000000
8357		-570.000000
8358		817.500000
8359		-965.000000
8360		35.000000
8361		-737.500000
8362		-452.500000
8363		515.000000
8364		-592.500000
8365		-140.000000
8366		-417.500000
8367		-982.500000
8368		-607.500000
8369		435.000000
8370		395.000000
8371		-327.500000
8372		440.000000
8373		-842.500000
8374		-977.500000
8375		-1485.000000
8376		-1272.500000
8377		162.500000
8378		-132.500000
8379		-410.000000
8380		125.000000
8381		-1137.500000
8382		860.000000
8383		7.500000
8384		-712.500000
8385		-340.000000
8386		-460.000000
8387		-1422.500000
8388		1030.000000
8389		55.000000
8390		1627.500000
8391		-1380.000000
8392		-390.000000
8393		-305.000000
8394		597.500000
8395		555.000000
8396		650.000000
8397		-560.000000
8398		-142.500000
8399		302.500000
8400		-250.000000
8401		1495.000000
8402		-100.000000
8403		987.500000
8404		-927.500000
8405		500.000000
8406		657.500000
8407		1060.000000
8408		-582.500000
8409		-800.000000
8410		-797.500000
8411		102.500000
8412		707.500000
8413		-407.500000
8414		-172.500000
8415		-227.500000
8416		1272.500000
8417		295.000000
8418		780.000000
8419		-652.500000
8420		-482.500000
8421		-55.000000
8422		-12.500000
8423		67.500000
8424		-207.500000
8425		135.000000
8426		-592.500000
8427		-70.000000
8428		-685.000000
8429		-147.500000
8430		-157.500000
8431		402.500000
8432		-1477.500000
8433		1177.500000
8434		-57.500000
8435		527.500000
8436		-342.500000
8437		1047.500000
8438		-47.500000
8439		702.500000
8440		-30.000000
8441		-710.000000
8442		532.500000
8443		-145.000000
8444		-72.500000
8445		852.500000
8446		260.000000
8447		-297.500000
8448		1230.000000
8449		-1572.500000
8450		-35.000000
8451		-97.500000
8452		425.000000
8453		-755.000000
8454		330.000000
8455		1365.000000
8456		-77.500000
8457		-332.500000
8458		927.500000
8459		-542.500000
8460		1020.000000
8461		1137.500000
8462		1925.000000
8463		-422.500000
8464		-752.500000
8465		-1162.500000
8466		247.500000
8467		352.500000
8468		-135.000000
8469		-1032.500000
8470		-35.000000
8471		-1847.500000
8472		-1342.500000
8473		-622.500000
8474		-1125.000000
8475		195.000000
8476		-450.000000
8477		-1180.000000
8478		500.000000
8479		-787.500000
8480		-72.500000
8481		-585.000000
8482		-10.000000
8483		1350.000000
8484		-200.000000
8485		492.500000
8486		-350.000000
8487		1010.000000
8488		-315.000000
8489		177.500000
8490		-22.500000
8491		-527.500000
8492		-127.500000
8493		97.500000
8494		612.500000
8495		472.500000
8496		-345.000000
8497		-317.500000
8498		-1542.500000
8499		-1450.000000
8500		-1015.000000
8501		1335.000000
8502		-260.000000
8503		-597.500000
8504		-870.000000
8505		907.500000
8506		257.500000
8507		262.500000
8508		-962.500000
8509		-1030.000000
8510		-535.000000
8511		-940.000000
8512		-1375.000000
8513		-240.000000
8514		-405.000000
8515		972.500000
8516		592.500000
8517		2.500000
8518		-612.500000
8519		475.000000
8520		352.500000
8521		-525.000000
8522		-157.500000
8523		507.500000
8524		-820.000000
8525		-795.000000
8526		-742.500000
8527		562.500000
8528		-222.500000
8529		-2277.500000
8530		460.000000
8531		-267.500000
8532		860.000000
8533		647.500000
8534		1045.000000
8535		107.500000
8536		-1315.000000
8537		167.500000
8538		430.000000
8539		-567.500000
8540		1537.500000
8541		367.500000
8542		-475.000000
8543		-50.000000
8544		1435.000000
8545		405.000000
8546		-687.500000
8547		-242.500000
8548		1207.500000
8549		672.500000
8550		-877.500000
8551		-837.500000
8552		407.500000
8553		145.000000
8554		840.000000
8555		-1235.000000
8556		672.500000
8557		-222.500000
8558		-795.000000
8559		187.500000
8560		307.500000
8561		1337.500000
8562		292.500000
8563		550.000000
8564		-1100.000000
8565		-985.000000
8566		60.000000
8567		-22.500000
8568		-830.000000
8569		-545.000000
8570		-157.500000
8571		-132.500000
8572		485.000000
8573		-142.500000
8574		-512.500000
8575		295.000000
8576		212.500000
8577		140.000000
8578		330.000000
8579		980.000000
8580		292.500000
8581		-1815.000000
8582		-385.000000
8583		-432.500000
8584		200.000000
8585		505.000000
8586		40.000000
8587		-900.000000
8588		-1412.500000
8589		-315.000000
8590		317.500000
8591		660.000000
8592		-222.500000
8593		775.000000
8594		-920.000000
8595		987.500000
8596		995.000000
8597		502.500000
8598		-1490.000000
8599		-155.000000
8600		-1450.000000
8601		177.500000
8602		435.000000
8603		667.500000
8604		975.000000
8605		-40.000000
8606		955.000000
8607		-7.500000
8608		905.000000
8609		355.000000
8610		142.500000
8611		1080.000000
8612		-540.000000
8613		-767.500000
8614		265.000000
8615		-740.000000
8616		-90.000000
8617		-1000.000000
8618		-290.000000
8619		-897.500000
8620		-92.500000
8621		-762.500000
8622		737.500000
8623		-232.500000
8624		822.500000
8625		42.500000
8626		37.500000
8627		-137.500000
8628		247.500000
8629		1002.500000
8630		-142.500000
8631		267.500000
8632		1322.500000
8633		527.500000
8634		-825.000000
8635		-662.500000
8636		112.500000
8637		-1127.500000
8638		450.000000
8639		1890.000000
8640		-1387.500000
8641		-1630.000000
8642		857.500000
8643		870.000000
8644		-1087.500000
8645		-1010.000000
8646		730.000000
8647		-770.000000
8648		457.500000
8649		600.000000
8650		762.500000
8651		1082.500000
8652		275.000000
8653		727.500000
8654		762.500000
8655		302.500000
8656		1200.000000
8657		575.000000
8658		-707.500000
8659		-120.000000
8660		187.500000
8661		-552.500000
8662		-1362.500000
8663		-677.500000
8664		-1627.500000
8665		200.000000
8666		-372.500000
8667		127.500000
8668		-92.500000
8669		180.000000
8670		325.000000
8671		-300.000000
8672		-272.500000
8673		-115.000000
8674		502.500000
8675		-40.000000
8676		740.000000
8677		-57.500000
8678		-567.500000
8679		175.000000
8680		287.500000
8681		-1037.500000
8682		640.000000
8683		-1597.500000
8684		-290.000000
8685		-1325.000000
8686		637.500000
8687		1715.000000
8688		-72.500000
8689		-580.000000
8690		-235.000000
8691		1807.500000
8692		-182.500000
8693		-1577.500000
8694		1207.500000
8695		1202.500000
8696		-407.500000
8697		545.000000
8698		670.000000
8699		-852.500000
8700		-585.000000
8701		-15.000000
8702		62.500000
8703		-17.500000
8704		257.500000
8705		1267.500000
8706		1535.000000
8707		-562.500000
8708		567.500000
8709		1562.500000
8710		-1172.500000
8711		677.500000
8712		545.000000
8713		-905.000000
8714		1290.000000
8715		382.500000
8716		1035.000000
8717		-810.000000
8718		-592.500000
8719		-245.000000
8720		-15.000000
8721		-1207.500000
8722		570.000000
8723		397.500000
8724		1605.000000
8725		-1347.500000
8726		-52.500000
8727		-1162.500000
8728		230.000000
8729		-1112.500000
8730		-277.500000
8731		107.500000
8732		622.500000
8733		262.500000
8734		-240.000000
8735		405.000000
8736		-12.500000
8737		522.500000
8738		1832.500000
8739		-1460.000000
8740		-5.000000
8741		-1010.000000
8742		-1615.000000
8743		-1442.500000
8744		342.500000
8745		565.000000
8746		297.500000
8747		-650.000000
8748		-772.500000
8749		-180.000000
8750		597.500000
8751		-117.500000
8752		997.500000
8753		-1085.000000
8754		87.500000
8755		107.500000
8756		-337.500000
8757		-252.500000
8758		-1037.500000
8759		907.500000
8760		257.500000
8761		-620.000000
8762		-480.000000
8763		1320.000000
8764		-1237.500000
8765		-1850.000000
8766		687.500000
8767		640.000000
8768		-275.000000
8769		1447.500000
8770		-797.500000
8771		1405.000000
8772		-422.500000
8773		562.500000
8774		542.500000
8775		1052.500000
8776		-1327.500000
8777		-172.500000
8778		-417.500000
8779		0.000000
8780		-747.500000
8781		-800.000000
8782		295.000000
8783		457.500000
8784		-1132.500000
8785		-530.000000
8786		-160.000000
8787		-390.000000
8788		-257.500000
8789		230.000000
8790		-737.500000
8791		-800.000000
8792		-312.500000
8793		-1045.000000
8794		12.500000
8795		372.500000
8796		397.500000
8797		-1012.500000
8798		1620.000000
8799		-912.500000
8800		-300.000000
8801		-992.500000
8802		930.000000
8803		-265.000000
8804		-765.000000
8805		-867.500000
8806		-400.000000
8807		-667.500000
8808		1585.000000
8809		422.500000
8810		992.500000
8811		657.500000
8812		25.000000
8813		70.000000
8814		1530.000000
8815		1205.000000
8816		1742.500000
8817		1140.000000
8818		-232.500000
8819		-967.500000
8820		-220.000000
8821		-517.500000
8822		-1035.000000
8823		242.500000
8824		-357.500000
8825		-995.000000
8826		962.500000
8827		220.000000
8828		-650.000000
8829		-737.500000
8830		1065.000000
8831		147.500000
8832		-1172.500000
8833		-397.500000
8834		2.500000
8835		1555.000000
8836		-1192.500000
8837		232.500000
8838		1197.500000
8839		-1092.500000
8840		-435.000000
8841		-57.500000
8842		205.000000
8843		1057.500000
8844		270.000000
8845		-1565.000000
8846		-115.000000
8847		85.000000
8848		-65.000000
8849		395.000000
8850		-815.000000
8851		-845.000000
8852		662.500000
8853		1482.500000
8854		910.000000
8855		572.500000
8856		790.000000
8857		-692.500000
8858		-105.000000
8859		1330.000000
8860		25.000000
8861		-297.500000
8862		380.000000
8863		640.000000
8864		317.500000
8865		-650.000000
8866		-720.000000
8867		690.000000
8868		417.500000
8869		340.000000
8870		35.000000
8871		-567.500000
8872		120.000000
8873		540.000000
8874		-687.500000
8875		-582.500000
8876		-547.500000
8877		97.500000
8878		-1562.500000
8879		620.000000
8880		1415.000000
8881		470.000000
8882		-157.500000
8883		-362.500000
8884		87.500000
8885		-522.500000
8886		-687.500000
8887		562.500000
8888		582.500000
8889		-40.000000
8890		-1022.500000
8891		257.500000
8892		470.000000
8893		70.000000
8894		-22.500000
8895		1282.500000
8896		-472.500000
8897		700.000000
8898		-990.000000
8899		-412.500000
8900		-32.500000
8901		-660.000000
8902		-1195.000000
8903		-1007.500000
8904		-910.000000
8905		-375.000000
8906		32.500000
8907		807.500000
8908		860.000000
8909		242.500000
8910		272.500000
8911		547.500000
8912		1152.500000
8913		-2002.500000
8914		-1090.000000
8915		-75.000000
8916		390.000000
8917		-457.500000
8918		447.500000
8919		32.500000
8920		-1152.500000
8921		170.000000
8922		-562.500000
8923		-992.500000
8924		-117.500000
8925		35.000000
8926		-682.500000
8927		-115.000000
8928		700.000000
8929		287.500000
8930		-152.500000
8931		-1132.500000
8932		-307.500000
8933		-522.500000
8934		-232.500000
8935		-1220.000000
8936		-472.500000
8937		-282.500000
8938		1505.000000
8939		-1040.000000
8940		767.500000
8941		330.000000
8942		-825.000000
8943		830.000000
8944		-1195.000000
8945		1445.000000
8946		-1627.500000
8947		472.500000
8948		-820.000000
8949		232.500000
8950		170.000000
8951		752.500000
8952		715.000000
8953		237.500000
8954		-477.500000
8955		335.000000
8956		-97.500000
8957		-1210.000000
8958		562.500000
8959		-162.500000
8960		-390.000000
8961		472.500000
8962		710.000000
8963		1435.000000
8964		1080.000000
8965		1815.000000
8966		952.500000
8967		-257.500000
8968		-1472.500000
8969		-482.500000
8970		-1025.000000
8971		1502.500000
8972		577.500000
8973		-1977.500000
8974		-170.000000
8975		320.000000
8976		860.000000
8977		-600.000000
8978		-672.500000
8979		165.000000
8980		-40.000000
8981		-1205.000000
8982		250.000000
8983		7.500000
8984		-260.000000
8985		390.000000
8986		-895.000000
8987		1355.000000
8988		-182.500000
8989		-532.500000
8990		-275.000000
8991		-432.500000
8992		295.000000
8993		687.500000
8994		95.000000
8995		565.000000
8996		1442.500000
8997		-380.000000
8998		-980.000000
8999		-1275.000000
9000		520.000000
9001		-1817.500000
9002		-610.000000
9003		522.500000
9004		1345.000000
9005		1907.500000
9006		172.500000
9007		-5.000000
9008		137.500000
9009		85.000000
9010		980.000000
9011		30.000000
9012		-617.500000
9013		532.500000
9014		802.500000
9015		-950.000000
9016		-470.000000
9017		-667.500000
9018		960.000000
9019		-787.500000
9020		-1130.000000
9021		-140.000000
9022		30.000000
9023		-42.500000
9024		-432.500000
9025		-290.000000
9026		1167.500000
9027		1537.500000
9028		820.000000
9029		-1080.000000
9030		-1175.000000
9031		-362.500000
9032		-1335.000000
9033		465.000000
9034		1455.000000
9035		-152.500000
9036		727.500000
9037		475.000000
9038		-842.500000
9039		150.000000
9040		-305.000000
9041		577.500000
9042		-1295.000000
9043		-102.500000
9044		17.500000
9045		440.000000
9046		400.000000
9047		162.500000
9048		932.500000
9049		-42.500000
9050		1020.000000
9051		80.000000
9052		-735.000000
9053		-52.500000
9054		-202.500000
9055		130.000000
9056		-1075.000000
9057		572.500000
9058		642.500000
9059		-462.500000
9060		-37.500000
9061		-810.000000
9062		-730.000000
9063		560.000000
9064		-705.000000
9065		152.500000
9066		-112.500000
9067		522.500000
9068		420.000000
9069		1947.500000
9070		-170.000000
9071		460.000000
9072		257.500000
9073		-1030.000000
9074		547.500000
9075		110.000000
9076		-1430.000000
9077		405.000000
9078		415.000000
9079		520.000000
9080		-1130.000000
9081		-577.500000
9082		-657.500000
9083		457.500000
9084		-790.000000
9085		-847.500000
9086		-490.000000
9087		-1372.500000
9088		-525.000000
9089		-347.500000
9090		-277.500000
9091		1567.500000
9092		-507.500000
9093		322.500000
9094		-87.500000
9095		80.000000
9096		577.500000
9097		252.500000
9098		-45.000000
9099		922.500000
9100		142.500000
9101		-182.500000
9102		-742.500000
9103		-755.000000
9104		-1482.500000
9105		117.500000
9106		-662.500000
9107		202.500000
9108		-200.000000
9109		-1472.500000
9110		257.500000
9111		-1262.500000
9112		-237.500000
9113		1455.000000
9114		525.000000
9115		1737.500000
9116		-882.500000
9117		1192.500000
9118		-235.000000
9119		-700.000000
9120		-535.000000
9121		372.500000
9122		-87.500000
9123		510.000000
9124		-1125.000000
9125		37.500000
9126		1220.000000
9127		432.500000
9128		670.000000
9129		685.000000
9130		-1537.500000
9131		-1230.000000
9132		-47.500000
9133		322.500000
9134		375.000000
9135		-247.500000
9136		252.500000
9137		-525.000000
9138		-117.500000
9139		-632.500000
9140		-1297.500000
9141		-1892.500000
9142		-222.500000
9143		-117.500000
9144		-1875.000000
9145		-562.500000
9146		-1245.000000
9147		-367.500000
9148		-360.000000
9149		1470.000000
9150		1170.000000
9151		-122.500000
9152		-100.000000
9153		1067.500000
9154		900.000000
9155		92.500000
9156		32.500000
9157		-570.000000
9158		-1277.500000
9159		175.000000
9160		-1402.500000
9161		37.500000
9162		1152.500000
9163		-415.000000
9164		657.500000
9165		660.000000
9166		420.000000
9167		227.500000
9168		1402.500000
9169		-842.500000
9170		-895.000000
9171		-210.000000
9172		1035.000000
9173		-780.000000
9174		460.000000
9175		-52.500000
9176		-500.000000
9177		732.500000
9178		255.000000
9179		-1697.500000
9180		222.500000
9181		-780.000000
9182		465.000000
9183		215.000000
9184		447.500000
9185		297.500000
9186		155.000000
9187		-440.000000
9188		112.500000
9189		400.000000
9190		-1962.500000
9191		80.000000
9192		-812.500000
9193		1430.000000
9194		-1087.500000
9195		-547.500000
9196		445.000000
9197		232.500000
9198		460.000000
9199		-1417.500000
9200		37.500000
9201		372.500000
9202		-1085.000000
9203		-2.500000
9204		-697.500000
9205		35.000000
9206		-1112.500000
9207		100.000000
9208		480.000000
9209		-840.000000
9210		-620.000000
9211		-207.500000
9212		-985.000000
9213		282.500000
9214		-662.500000
9215		-1192.500000
9216		480.000000
9217		930.000000
9218		-725.000000
9219		925.000000
9220		810.000000
9221		-227.500000
9222		15.000000
9223		-1410.000000
9224		-675.000000
9225		327.500000
9226		295.000000
9227		-1335.000000
9228		-435.000000
9229		317.500000
9230		617.500000
9231		-1035.000000
9232		-192.500000
9233		337.500000
9234		-357.500000
9235		597.500000
9236		-467.500000
9237		-315.000000
9238		-1765.000000
9239		-460.000000
9240		-877.500000
9241		67.500000
9242		330.000000
9243		-37.500000
9244		697.500000
9245		-967.500000
9246		800.000000
9247		525.000000
9248		-1550.000000
9249		640.000000
9250		-727.500000
9251		-745.000000
9252		-252.500000
9253		-950.000000
9254		512.500000
9255		-1602.500000
9256		-1775.000000
9257		102.500000
9258		227.500000
9259		915.000000
9260		-1150.000000
9261		580.000000
9262		-147.500000
9263		-940.000000
9264		430.000000
9265		167.500000
9266		15.000000
9267		227.500000
9268		-252.500000
9269		5.000000
9270		827.500000
9271		-1962.500000
9272		852.500000
9273		-227.500000
9274		-722.500000
9275		-1260.000000
9276		-482.500000
9277		990.000000
9278		-1227.500000
9279		95.000000
9280		-900.000000
9281		302.500000
9282		107.500000
9283		-750.000000
9284		-120.000000
9285		-765.000000
9286		-182.500000
9287		160.000000
9288		455.000000
9289		-655.000000
9290		332.500000
9291		-330.000000
9292		1140.000000
9293		-465.000000
9294		-602.500000
9295		1240.000000
9296		1135.000000
9297		-1412.500000
9298		-205.000000
9299		1265.000000
9300		1550.000000
9301		-907.500000
9302		942.500000
9303		435.000000
9304		47.500000
9305		-292.500000
9306		277.500000
9307		-1272.500000
9308		-925.000000
9309		1415.000000
9310		-962.500000
9311		1367.500000
9312		492.500000
9313		-460.000000
9314		-210.000000
9315		1070.000000
9316		-55.000000
9317		-590.000000
9318		440.000000
9319		140.000000
9320		-832.500000
9321		1072.500000
9322		532.500000
9323		-45.000000
9324		-1582.500000
9325		-37.500000
9326		577.500000
9327		-97.500000
9328		555.000000
9329		-335.000000
9330		-895.000000
9331		485.000000
9332		-537.500000
9333		120.000000
9334		512.500000
9335		112.500000
9336		-530.000000
9337		35.000000
9338		-735.000000
9339		1060.000000
9340		-395.000000
9341		-642.500000
9342		-1275.000000
9343		-1247.500000
9344		1100.000000
9345		930.000000
9346		-685.000000
9347		-180.000000
9348		-1312.500000
9349		-1320.000000
9350		-1145.000000
9351		-415.000000
9352		497.500000
9353		1742.500000
9354		717.500000
9355		-470.000000
9356		-147.500000
9357		-1580.000000
9358		537.500000
9359		115.000000
9360		-395.000000
9361		-42.500000
9362		-857.500000
9363		-912.500000
9364		-335.000000
9365		-1095.000000
9366		-945.000000
9367		-290.000000
9368		-282.500000
9369		522.500000
9370		465.000000
9371		407.500000
9372		1950.000000
9373		-582.500000
9374		-90.000000
9375		-752.500000
9376		812.500000
9377		-1015.000000
9378		42.500000
9379		-152.500000
9380		-1345.000000
9381		270.000000
9382		1067.500000
9383		0.000000
9384		-365.000000
9385		-117.500000
9386		300.000000
9387		-1035.000000
9388		-235.000000
9389		-512.500000
9390		747.500000
9391		-1692.500000
9392		-387.500000
9393		-1505.000000
9394		300.000000
9395		-805.000000
9396		-192.500000
9397		-405.000000
9398		1017.500000
9399		222.500000
9400		-535.000000
9401		1282.500000
9402		-677.500000
9403		-287.500000
9404		885.000000
9405		-1015.000000
9406		-725.000000
9407		317.500000
9408		1392.500000
9409		225.000000
9410		-1315.000000
9411		682.500000
9412		-767.500000
9413		622.500000
9414		7.500000
9415		707.500000
9416		-1220.000000
9417		140.000000
9418		860.000000
9419		-1692.500000
9420		-1070.000000
9421		1207.500000
9422		797.500000
9423		145.000000
9424		-855.000000
9425		-827.500000
9426		227.500000
9427		-750.000000
9428		-1702.500000
9429		-47.500000
9430		-697.500000
9431		-490.000000
9432		472.500000
9433		-152.500000
9434		-410.000000
9435		202.500000
9436		1022.500000
9437		-1570.000000
9438		310.000000
9439		-575.000000
9440		-537.500000
9441		1115.000000
9442		-1632.500000
9443		-172.500000
9444		690.000000
9445		-1035.000000
9446		1087.500000
9447		320.000000
9448		660.000000
9449		-857.500000
9450		-415.000000
9451		807.500000
9452		837.500000
9453		-430.000000
9454		367.500000
9455		142.500000
9456		460.000000
9457		22.500000
9458		1005.000000
9459		-270.000000
9460		-420.000000
9461		-442.500000
9462		272.500000
9463		-597.500000
9464		960.000000
9465		-135.000000
9466		-672.500000
9467		-580.000000
9468		-407.500000
9469		-500.000000
9470		-757.500000
9471		132.500000
9472		380.000000
9473		252.500000
9474		447.500000
9475		-1700.000000
9476		-245.000000
9477		1667.500000
9478		-847.500000
9479		-280.000000
9480		900.000000
9481		220.000000
9482		-455.000000
9483		302.500000
9484		-690.000000
9485		145.000000
9486		-1215.000000
9487		752.500000
9488		-225.000000
9489		-185.000000
9490		-455.000000
9491		-232.500000
9492		82.500000
9493		-195.000000
9494		-722.500000
9495		1070.000000
9496		-740.000000
9497		582.500000
9498		-532.500000
9499		-372.500000
9500		1160.000000
9501		-597.500000
9502		0.000000
9503		522.500000
9504		645.000000
9505		517.500000
9506		492.500000
9507		225.000000
9508		-2000.000000
9509		0.000000
9510		1027.500000
9511		290.000000
9512		1242.500000
9513		212.500000
9514		-207.500000
9515		740.000000
9516		-1065.000000
9517		-1185.000000
9518		-787.500000
9519		-707.500000
9520		290.000000
9521		-385.000000
9522		-1650.000000
9523		-287.500000
9524		612.500000
9525		1222.500000
9526		-912.500000
9527		-490.000000
9528		290.000000
9529		-5.000000
9530		742.500000
9531		750.000000
9532		642.500000
9533		-582.500000
9534		130.000000
9535		1047.500000
9536		-592.500000
9537		1090.000000
9538		-2015.000000
9539		407.500000
9540		-1305.000000
9541		590.000000
9542		-50.000000
9543		1697.500000
9544		-32.500000
9545		2150.000000
9546		-595.000000
9547		-275.000000
9548		727.500000
9549		145.000000
9550		395.000000
9551		-625.000000
9552		-1380.000000
9553		-192.500000
9554		155.000000
9555		900.000000
9556		847.500000
9557		72.500000
9558		197.500000
9559		-1122.500000
9560		487.500000
9561		672.500000
9562		570.000000
9563		430.000000
9564		-2052.500000
9565		-900.000000
9566		-302.500000
9567		-1787.500000
9568		-530.000000
9569		537.500000
9570		992.500000
9571		-177.500000
9572		-1517.500000
9573		335.000000
9574		-305.000000
9575		-137.500000
9576		1827.500000
9577		210.000000
9578		510.000000
9579		1282.500000
9580		252.500000
9581		545.000000
9582		785.000000
9583		-1150.000000
9584		-342.500000
9585		-1427.500000
9586		-1662.500000
9587		672.500000
9588		-92.500000
9589		1160.000000
9590		242.500000
9591		905.000000
9592		-880.000000
9593		-1012.500000
9594		-445.000000
9595		-1245.000000
9596		1290.000000
9597		-787.500000
9598		1455.000000
9599		-877.500000
9600		97.500000
9601		-812.500000
9602		-52.500000
9603		-165.000000
9604		1235.000000
9605		620.000000
9606		-327.500000
9607		-487.500000
9608		1342.500000
9609		407.500000
9610		-1052.500000
9611		-715.000000
9612		392.500000
9613		2262.500000
9614		367.500000
9615		1410.000000
9616		757.500000
9617		-707.500000
9618		-1602.500000
9619		-417.500000
9620		1280.000000
9621		-245.000000
9622		-675.000000
9623		-720.000000
9624		722.500000
9625		830.000000
9626		-320.000000
9627		-122.500000
9628		207.500000
9629		-477.500000
9630		1102.500000
9631		197.500000
9632		-1357.500000
9633		-172.500000
9634		465.000000
9635		-680.000000
9636		910.000000
9637		585.000000
9638		-60.000000
9639		-1495.000000
9640		-1102.500000
9641		-752.500000
9642		-127.500000
9643		-712.500000
9644		130.000000
9645		340.000000
9646		-550.000000
9647		402.500000
9648		442.500000
9649		-602.500000
9650		105.000000
9651		-787.500000
9652		280.000000
9653		-1367.500000
9654		-592.500000
9655		-1337.500000
9656		-695.000000
9657		-627.500000
9658		1382.500000
9659		-1197.500000
9660		-890.000000
9661		-1417.500000
9662		662.500000
9663		-562.500000
9664		-2.500000
9665		-217.500000
9666		-510.000000
9667		-445.000000
9668		932.500000
9669		555.000000
9670		-840.000000
9671		575.000000
9672		595.000000
9673		557.500000
9674		-445.000000
9675		-617.500000
9676		-830.000000
9677		-550.000000
9678		465.000000
9679		-532.500000
9680		735.000000
9681		-867.500000
9682		282.500000
9683		-1152.500000
9684		555.000000
9685		270.000000
9686		675.000000
9687		-947.500000
9688		-1177.500000
9689		770.000000
9690		255.000000
9691		-75.000000
9692		-290.000000
9693		-515.000000
9694		-612.500000
9695		937.500000
9696		230.000000
9697		252.500000
9698		12.500000
9699		1015.000000
9700		370.000000
9701		1105.000000
9702		-557.500000
9703		-1312.500000
9704		727.500000
9705		-1155.000000
9706		-147.500000
9707		87.500000
9708		-1130.000000
9709		-385.000000
9710		-860.000000
9711		65.000000
9712		-480.000000
9713		-327.500000
9714		2.500000
9715		702.500000
9716		-187.500000
9717		-245.000000
9718		237.500000
9719		752.500000
9720		880.000000
9721		822.500000
9722		-835.000000
9723		-912.500000
9724		917.500000
9725		-420.000000
9726		652.500000
9727		-580.000000
9728		335.000000
9729		275.000000
9730		825.000000
9731		160.000000
9732		-772.500000
9733		-582.500000
9734		-1247.500000
9735		-1047.500000
9736		327.500000
9737		-1125.000000
9738		-7.500000
9739		-1072.500000
9740		-1110.000000
9741		822.500000
9742		-700.000000
9743		-347.500000
9744		-620.000000
9745		-1195.000000
9746		-540.000000
9747		705.000000
9748		-1592.500000
9749		37.500000
9750		-847.500000
9751		-227.500000
9752		210.000000
9753		-702.500000
9754		240.000000
9755		-845.000000
9756		0.000000
9757		275.000000
9758		340.000000
9759		-115.000000
9760		-1035.000000
9761		740.000000
9762		1322.500000
9763		1402.500000
9764		-102.500000
9765		-2400.000000
9766		687.500000
9767		-432.500000
9768		87.500000
9769		1267.500000
9770		285.000000
9771		672.500000
9772		-1297.500000
9773		-7.500000
9774		-1097.500000
9775		597.500000
9776		-905.000000
9777		760.000000
9778		227.500000
9779		-1087.500000
9780		-192.500000
9781		-1185.000000
9782		-1280.000000
9783		442.500000
9784		197.500000
9785		-1607.500000
9786		832.500000
9787		542.500000
9788		-1375.000000
9789		-1137.500000
9790		-297.500000
9791		585.000000
9792		-1037.500000
9793		522.500000
9794		-120.000000
9795		327.500000
9796		-985.000000
9797		97.500000
9798		1110.000000
9799		787.500000
9800		-182.500000
9801		897.500000
9802		187.500000
9803		1497.500000
9804		-895.000000
9805		-1600.000000
9806		1605.000000
9807		-195.000000
9808		-290.000000
9809		1470.000000
9810		675.000000
9811		-375.000000
9812		-922.500000
9813		-960.000000
9814		590.000000
9815		-1675.000000
9816		1060.000000
9817		-432.500000
9818		-1425.000000
9819		747.500000
9820		-905.000000
9821		612.500000
9822		370.000000
9823		-1465.000000
9824		102.500000
9825		-47.500000
9826		337.500000
9827		-1550.000000
9828		1517.500000
9829		-1630.000000
9830		275.000000
9831		225.000000
9832		-360.000000
9833		1342.500000
9834		-752.500000
9835		-1432.500000
9836		1267.500000
9837		67.500000
9838		610.000000
9839		1082.500000
9840		-1982.500000
9841		702.500000
9842		-740.000000
9843		-1167.500000
9844		-340.000000
9845		1000.000000
9846		-1665.000000
9847		497.500000
9848		567.500000
9849		-557.500000
9850		-482.500000
9851		-957.500000
9852		625.000000
9853		15.000000
9854		-505.000000
9855		825.000000
9856		225.000000
9857		682.500000
9858		77.500000
9859		-12.500000
9860		660.000000
9861		-52.500000
9862		197.500000
9863		372.500000
9864		-427.500000
9865		1797.500000
9866		785.000000
9867		-477.500000
9868		-612.500000
9869		-1365.000000
9870		-132.500000
9871		300.000000
9872		697.500000
9873		225.000000
9874		-137.500000
9875		-990.000000
9876		355.000000
9877		520.000000
9878		260.000000
9879		1155.000000
9880		-677.500000
9881		-100.000000
9882		-825.000000
9883		-955.000000
9884		147.500000
9885		642.500000
9886		-620.000000
9887		820.000000
9888		257.500000
9889		330.000000
9890		-552.500000
9891		-765.000000
9892		322.500000
9893		-707.500000
9894		1582.500000
9895		50.000000
9896		620.000000
9897		-270.000000
9898		-190.000000
9899		-745.000000
9900		-962.500000
9901		-1217.500000
9902		1865.000000
9903		1480.000000
9904		70.000000
9905		242.500000
9906		430.000000
9907		-270.000000
9908		212.500000
9909		372.500000
9910		-75.000000
9911		925.000000
9912		-692.500000
9913		345.000000
9914		555.000000
9915		70.000000
9916		-42.500000
9917		237.500000
9918		-180.000000
9919		1727.500000
9920		-200.000000
9921		-175.000000
9922		-32.500000
9923		-100.000000
9924		-742.500000
9925		285.000000
9926		752.500000
9927		755.000000
9928		1130.000000
9929		-642.500000
9930		-10.000000
9931		330.000000
9932		780.000000
9933		-912.500000
9934		1035.000000
9935		330.000000
9936		2027.500000
9937		410.000000
9938		-167.500000
9939		-547.500000
9940		910.000000
9941		597.500000
9942		117.500000
9943		-60.000000
9944		-392.500000
9945		1362.500000
9946		-687.500000
9947		282.500000
9948		-1737.500000
9949		337.500000
9950		-17.500000
9951		520.000000
9952		-435.000000
9953		902.500000
9954		1425.000000
9955		-1142.500000
9956		-810.000000
9957		300.000000
9958		1020.000000
9959		152.500000
9960		70.000000
9961		-462.500000
9962		257.500000
9963		-355.000000
9964		447.500000
9965		1000.000000
9966		-1597.500000
9967		-742.500000
9968		-337.500000
9969		-305.000000
9970		700.000000
9971		-682.500000
9972		235.000000
9973		-30.000000
9974		-810.000000
9975		352.500000
9976		647.500000
9977		-320.000000
9978		-1120.000000
9979		-305.000000
9980		-525.000000
9981		595.000000
9982		405.000000
9983		285.000000
9984		962.500000
9985		-955.000000
9986		-2.500000
9987		-1022.500000
9988		-1012.500000
9989		-1772.500000
9990		-535.000000
9991		2.500000
9992		-135.000000
9993		832.500000
9994		70.000000
9995		-562.500000
9996		-432.500000
9997		-880.000000
9998		460.000000
9999		422.500000
10000		380.000000
